File: data/derived_data/xps/20170920_Gr-NH2_for_Radisurf/20170920_xps_survey1.txt
C:\Users\emilbp\PhD\Projects\graphene-production\data\derived_data\xps\20170920_Gr-NH2_for_Radisurf\GrNH2.vms
Survey/2
	Characteristic Energy eV	1486.69	Acquisition Time s	0.2
KE_Survey/2	BE_Survey/2	CPS_Survey/2	Background_Survey/2
136.706	1349.98	51190	51190
141.706	1344.98	51010	51010
146.706	1339.98	50960	50960
151.706	1334.98	51195	51195
156.706	1329.98	50755	50755
161.706	1324.98	50225	50225
166.706	1319.98	51445	51445
171.706	1314.98	50780	50780
176.706	1309.98	51645	51645
181.706	1304.98	54135	54135
186.706	1299.98	53355	53355
191.706	1294.98	53515	53515
196.706	1289.98	54255	54255
201.706	1284.98	54425	54425
206.706	1279.98	54355	54355
211.706	1274.98	56080	56080
216.706	1269.98	56210	56210
221.706	1264.98	57740	57740
226.706	1259.98	58135	58135
231.706	1254.98	59160	59160
236.706	1249.98	60040	60040
241.706	1244.98	61990	61990
246.706	1239.98	62430	62430
251.706	1234.98	62645	62645
256.706	1229.98	67100	67100
261.706	1224.98	69075	69075
266.706	1219.98	64430	64430
271.706	1214.98	57975	57975
276.706	1209.98	47820	47820
281.706	1204.98	42220	42220
286.706	1199.98	41195	41195
291.706	1194.98	41300	41300
296.706	1189.98	41250	41250
301.706	1184.98	41825	41825
306.706	1179.98	41915	41915
311.706	1174.98	43020	43020
316.706	1169.98	42770	42770
321.706	1164.98	44090	44090
326.706	1159.98	43220	43220
331.706	1154.98	44020	44020
336.706	1149.98	44660	44660
341.706	1144.98	44475	44475
346.706	1139.98	45300	45300
351.706	1134.98	45445	45445
356.706	1129.98	46215	46215
361.706	1124.98	46365	46365
366.706	1119.98	46570	46570
371.706	1114.98	48175	48175
376.706	1109.98	47720	47720
381.706	1104.98	48885	48885
386.706	1099.98	48290	48290
391.706	1094.98	48175	48175
396.706	1089.98	49290	49290
401.706	1084.98	49065	49065
406.706	1079.98	49635	49635
411.706	1074.98	50245	50245
416.706	1069.98	50895	50895
421.706	1064.98	51475	51475
426.706	1059.98	51870	51870
431.706	1054.98	52580	52580
436.706	1049.98	52240	52240
441.706	1044.98	54000	54000
446.706	1039.98	53605	53605
451.706	1034.98	54235	54235
456.706	1029.98	54985	54985
461.706	1024.98	55745	55745
466.706	1019.98	55955	55955
471.706	1014.98	57110	57110
476.706	1009.98	57335	57335
481.706	1004.98	60255	60255
486.706	999.984	62305	62305
491.706	994.984	60310	60310
496.706	989.984	56435	56435
501.706	984.984	56940	56940
506.706	979.984	64220	64220
511.706	974.984	66760	66760
516.706	969.984	56920	56920
521.706	964.984	43675	43675
526.706	959.984	40510	40510
531.706	954.984	40395	40395
536.706	949.984	40005	40005
541.706	944.984	40615	40615
546.706	939.984	39735	39735
551.706	934.984	41155	41155
556.706	929.984	41070	41070
561.706	924.984	41305	41305
566.706	919.984	42525	42525
571.706	914.984	41875	41875
576.706	909.984	42080	42080
581.706	904.984	41975	41975
586.706	899.984	42620	42620
591.706	894.984	43420	43420
596.706	889.984	43340	43340
601.706	884.984	43570	43570
606.706	879.984	43870	43870
611.706	874.984	43870	43870
616.706	869.984	43830	43830
621.706	864.984	45210	45210
626.706	859.984	45045	45045
631.706	854.984	44700	44700
636.706	849.984	44590	44590
641.706	844.984	44855	44855
646.706	839.984	46205	46205
651.706	834.984	46070	46070
656.706	829.984	45670	45670
661.706	824.984	46645	46645
666.706	819.984	46450	46450
671.706	814.984	46815	46815
676.706	809.984	47165	47165
681.706	804.984	47180	47180
686.706	799.984	47345	47345
691.706	794.984	48095	48095
696.706	789.984	48455	48455
701.706	784.984	47780	47780
706.706	779.984	48590	48590
711.706	774.984	48660	48660
716.706	769.984	49265	49265
721.706	764.984	49030	49030
726.706	759.984	49435	49435
731.706	754.984	50255	50255
736.706	749.984	50315	50315
741.706	744.984	50080	50080
746.706	739.984	51170	51170
751.706	734.984	50075	50075
756.706	729.984	50660	50660
761.706	724.984	50730	50730
766.706	719.984	52150	52150
771.706	714.984	52900	52900
776.706	709.984	52120	52120
781.706	704.984	51985	51985
786.706	699.984	52310	52310
791.706	694.984	52680	52680
796.706	689.984	52815	52815
801.706	684.984	53270	53270
806.706	679.984	53270	53270
811.706	674.984	54210	54210
816.706	669.984	54365	54365
821.706	664.984	53555	53555
826.706	659.984	55495	55495
831.706	654.984	55310	55310
836.706	649.984	55460	55460
841.706	644.984	55375	55375
846.706	639.984	55670	55670
851.706	634.984	55555	55555
856.706	629.984	56450	56450
861.706	624.984	58140	58140
866.706	619.984	56930	56930
871.706	614.984	58260	58260
876.706	609.984	58480	58480
881.706	604.984	58560	58560
886.706	599.984	58680	58680
891.706	594.984	58795	58795
896.706	589.984	58780	58780
901.706	584.984	59580	59580
906.706	579.984	59875	59875
911.706	574.984	59910	59910
916.706	569.984	59965	59965
921.706	564.984	60835	60835
926.706	559.984	62405	62405
931.706	554.984	64110	64110
936.706	549.984	58590	58590
941.706	544.984	52720	52720
946.706	539.984	47905	47905
951.706	534.984	69720	47436.4
956.706	529.984	67940	40137.5
961.706	524.984	39300	39300
966.706	519.984	38375	38375
971.706	514.984	38850	38850
976.706	509.984	38635	38635
981.706	504.984	38990	38990
986.706	499.984	39090	39090
991.706	494.984	40185	40185
996.706	489.984	38655	38655
1001.71	484.984	39455	39455
1006.71	479.984	39700	39700
1011.71	474.984	40450	40450
1016.71	469.984	39885	39885
1021.71	464.984	40730	40730
1026.71	459.984	41090	41090
1031.71	454.984	41250	41250
1036.71	449.984	41650	41650
1041.71	444.984	41325	41325
1046.71	439.984	42965	42965
1051.71	434.984	41780	41780
1056.71	429.984	41625	41625
1061.71	424.984	43120	43120
1066.71	419.984	43130	43130
1071.71	414.984	43220	43220
1076.71	409.984	42910	42910
1081.71	404.984	43725	43725
1086.71	399.984	47140	43708.7
1091.71	394.984	43820	43820
1096.71	389.984	43805	43805
1101.71	384.984	44345	44345
1106.71	379.984	44360	44360
1111.71	374.984	44550	44550
1116.71	369.984	44645	44645
1121.71	364.984	45495	45495
1126.71	359.984	45585	45585
1131.71	354.984	47060	47060
1136.71	349.984	47910	47910
1141.71	344.984	47700	47700
1146.71	339.984	47245	47245
1151.71	334.984	46130	46130
1156.71	329.984	46505	46505
1161.71	324.984	48110	48110
1166.71	319.984	49565	49565
1171.71	314.984	52340	52340
1176.71	309.984	51575	51575
1181.71	304.984	43020	43020
1186.71	299.984	31720	31720
1191.71	294.984	25740	25740
1196.71	289.984	40740	25104.7
1201.71	284.984	200705	14716.3
1206.71	279.984	6845	6575
1211.71	274.984	4735	4735
1216.71	269.984	4980	4980
1221.71	264.984	4650	4650
1226.71	259.984	4575	4575
1231.71	254.984	4310	4310
1236.71	249.984	4300	4300
1241.71	244.984	4265	4265
1246.71	239.984	4200	4200
1251.71	234.984	4545	4545
1256.71	229.984	4840	4840
1261.71	224.984	4475	4475
1266.71	219.984	4255	4255
1271.71	214.984	4265	4265
1276.71	209.984	3930	3930
1281.71	204.984	4385	4385
1286.71	199.984	5420	4068.59
1291.71	194.984	4025	4025
1296.71	189.984	3980	3980
1301.71	184.984	4265	4265
1306.71	179.984	4000	4000
1311.71	174.984	3830	3830
1316.71	169.984	5115	4036.52
1321.71	164.984	3880	3880
1326.71	159.984	3990	3990
1331.71	154.984	5435	5435
1336.71	149.984	4130	4130
1341.71	144.984	3765	3765
1346.71	139.984	3710	3710
1351.71	134.984	3520	3520
1356.71	129.984	3635	3635
1361.71	124.984	3805	3805
1366.71	119.984	3630	3630
1371.71	114.984	3675	3675
1376.71	109.984	3685	3685
1381.71	104.984	4800	3674.16
1386.71	99.984	4075	3610.42
1391.71	94.984	3870	3870
1396.71	89.984	3830	3830
1401.71	84.984	3525	3525
1406.71	79.984	3685	3685
1411.71	74.984	3405	3405
1416.71	69.984	3770	3770
1421.71	64.984	3650	3650
1426.71	59.984	3810	3810
1431.71	54.984	3875	3875
1436.71	49.984	3915	3915
1441.71	44.984	3855	3855
1446.71	39.984	3565	3565
1451.71	34.984	3320	3320
1456.71	29.984	4235	4235
1461.71	24.984	5935	5935
1466.71	19.984	4320	4320
1471.71	14.984	4050	4050
1476.71	9.984	3055	3055
1481.71	4.984	1760	1760
1486.71	-0.016	165	165