File: data/derived_data/xps/20170920_Gr-NH2_for_Radisurf/20170920_xps_survey2.txt
C:\Users\emilbp\PhD\Projects\graphene-production\data\derived_data\xps\20170920_Gr-NH2_for_Radisurf\GrNH2.vms
Survey/5
	Characteristic Energy eV	1486.69	Acquisition Time s	0.2
KE_Survey/5	BE_Survey/5	CPS_Survey/5	Background_Survey/5
136.68	1350.01	59040	59040
141.68	1345.01	59935	59935
146.68	1340.01	59375	59375
151.68	1335.01	58730	58730
156.68	1330.01	59320	59320
161.68	1325.01	59535	59535
166.68	1320.01	60305	60305
171.68	1315.01	59930	59930
176.68	1310.01	59545	59545
181.68	1305.01	63275	63275
186.68	1300.01	62005	62005
191.68	1295.01	61590	61590
196.68	1290.01	62365	62365
201.68	1285.01	63880	63880
206.68	1280.01	64180	64180
211.68	1275.01	64240	64240
216.68	1270.01	65670	65670
221.68	1265.01	66530	66530
226.68	1260.01	67105	67105
231.68	1255.01	68320	68320
236.68	1250.01	70010	70010
241.68	1245.01	73140	73140
246.68	1240.01	72540	72540
251.68	1235.01	72720	72720
256.68	1230.01	78655	78655
261.68	1225.01	79880	79880
266.68	1220.01	76605	76605
271.68	1215.01	68510	68510
276.68	1210.01	61505	61505
281.68	1205.01	55975	55975
286.68	1200.01	55225	55225
291.68	1195.01	57005	57005
296.68	1190.01	55910	55910
301.68	1185.01	57180	57180
306.68	1180.01	58390	58390
311.68	1175.01	56970	56970
316.68	1170.01	58400	58400
321.68	1165.01	58980	58980
326.68	1160.01	58590	58590
331.68	1155.01	60445	60445
336.68	1150.01	60405	60405
341.68	1145.01	61295	61295
346.68	1140.01	62035	62035
351.68	1135.01	62845	62845
356.68	1130.01	63465	63465
361.68	1125.01	64215	64215
366.68	1120.01	64670	64670
371.68	1115.01	65130	65130
376.68	1110.01	66755	66755
381.68	1105.01	67845	67845
386.68	1100.01	67640	67640
391.68	1095.01	68235	68235
396.68	1090.01	68880	68880
401.68	1085.01	68765	68765
406.68	1080.01	69760	69760
411.68	1075.01	70520	70520
416.68	1070.01	72015	72015
421.68	1065.01	72125	72125
426.68	1060.01	71920	71920
431.68	1055.01	73130	73130
436.68	1050.01	73615	73615
441.68	1045.01	75450	75450
446.68	1040.01	75440	75440
451.68	1035.01	75545	75545
456.68	1030.01	77385	77385
461.68	1025.01	78065	78065
466.68	1020.01	79625	79625
471.68	1015.01	79425	79425
476.68	1010.01	79155	79155
481.68	1005.01	80925	80925
486.68	1000.01	83660	83660
491.68	995.01	82170	82170
496.68	990.01	77050	77050
501.68	985.01	76695	76695
506.68	980.01	86100	86100
511.68	975.01	88075	88075
516.68	970.01	77655	77655
521.68	965.01	64930	64930
526.68	960.01	62910	62910
531.68	955.01	62240	62240
536.68	950.01	61785	61785
541.68	945.01	62230	62230
546.68	940.01	62870	62870
551.68	935.01	62955	62955
556.68	930.01	63295	63295
561.68	925.01	63275	63275
566.68	920.01	61985	61985
571.68	915.01	63165	63165
576.68	910.01	62935	62935
581.68	905.01	63665	63665
586.68	900.01	63635	63635
591.68	895.01	63765	63765
596.68	890.01	63535	63535
601.68	885.01	62610	62610
606.68	880.01	62560	62560
611.68	875.01	61790	61790
616.68	870.01	61735	61735
621.68	865.01	61870	61870
626.68	860.01	62945	62945
631.68	855.01	62800	62800
636.68	850.01	61405	61405
641.68	845.01	61805	61805
646.68	840.01	61490	61490
651.68	835.01	61095	61095
656.68	830.01	60860	60860
661.68	825.01	60030	60030
666.68	820.01	59925	59925
671.68	815.01	60720	60720
676.68	810.01	61005	61005
681.68	805.01	60610	60610
686.68	800.01	61220	61220
691.68	795.01	61320	61320
696.68	790.01	61770	61770
701.68	785.01	61740	61740
706.68	780.01	62285	62285
711.68	775.01	60920	60920
716.68	770.01	60980	60980
721.68	765.01	60915	60915
726.68	760.01	60405	60405
731.68	755.01	60845	60845
736.68	750.01	61635	61635
741.68	745.01	61810	61810
746.68	740.01	60660	60660
751.68	735.01	61585	61585
756.68	730.01	61375	61375
761.68	725.01	62940	62940
766.68	720.01	61315	61315
771.68	715.01	60850	60850
776.68	710.01	61695	61695
781.68	705.01	56935	56935
786.68	700.01	56770	56770
791.68	695.01	57785	57785
796.68	690.01	56975	56975
801.68	685.01	56770	56770
806.68	680.01	56915	56915
811.68	675.01	58320	58320
816.68	670.01	58145	58145
821.68	665.01	58495	58495
826.68	660.01	58730	58730
831.68	655.01	58570	58570
836.68	650.01	59120	59120
841.68	645.01	59330	59330
846.68	640.01	60190	60190
851.68	635.01	59470	59470
856.68	630.01	59210	59210
861.68	625.01	59760	59760
866.68	620.01	60200	60200
871.68	615.01	59915	59915
876.68	610.01	60110	60110
881.68	605.01	60570	60570
886.68	600.01	60465	60465
891.68	595.01	60775	60775
896.68	590.01	61035	61035
901.68	585.01	63385	63385
906.68	580.01	61610	61610
911.68	575.01	62670	62670
916.68	570.01	59840	59840
921.68	565.01	59845	59845
926.68	560.01	62960	62960
931.68	555.01	64105	64105
936.68	550.01	58990	58990
941.68	545.01	51845	51845
946.68	540.01	47370	47370
951.68	535.01	70295	46907.3
956.68	530.01	76105	38494.5
961.68	525.01	38105	38105
966.68	520.01	37455	37455
971.68	515.01	37500	37500
976.68	510.01	37500	37500
981.68	505.01	38065	38065
986.68	500.01	38060	38060
991.68	495.01	38705	38705
996.68	490.01	38735	38735
1001.68	485.01	38345	38345
1006.68	480.01	38625	38625
1011.68	475.01	39505	39505
1016.68	470.01	39735	39735
1021.68	465.01	39920	39920
1026.68	460.01	40300	40300
1031.68	455.01	40750	40750
1036.68	450.01	39995	39995
1041.68	445.01	40350	40350
1046.68	440.01	42040	42040
1051.68	435.01	40815	40815
1056.68	430.01	41370	41370
1061.68	425.01	41725	41725
1066.68	420.01	41340	41340
1071.68	415.01	41700	41700
1076.68	410.01	42280	42280
1081.68	405.01	43020	43020
1086.68	400.01	45470	42612.6
1091.68	395.01	42710	42710
1096.68	390.01	43505	43505
1101.68	385.01	43845	43845
1106.68	380.01	43800	43800
1111.68	375.01	43780	43780
1116.68	370.01	44520	44520
1121.68	365.01	44635	44635
1126.68	360.01	44680	44680
1131.68	355.01	45645	45645
1136.68	350.01	47535	47535
1141.68	345.01	46440	46440
1146.68	340.01	47140	47140
1151.68	335.01	44995	44995
1156.68	330.01	45820	45820
1161.68	325.01	46475	46475
1166.68	320.01	48375	48375
1171.68	315.01	50690	50690
1176.68	310.01	51450	51450
1181.68	305.01	44760	44760
1186.68	300.01	32645	32645
1191.68	295.01	27550	27286.8
1196.68	290.01	42175	26732.1
1201.68	285.01	189580	16942.6
1206.68	280.01	10550	9880
1211.68	275.01	8825	8825
1216.68	270.01	9185	9185
1221.68	265.01	8490	8490
1226.68	260.01	8390	8390
1231.68	255.01	8530	8530
1236.68	250.01	8490	8490
1241.68	245.01	8580	8580
1246.68	240.01	8505	8505
1251.68	235.01	8720	8720
1256.68	230.01	8855	8855
1261.68	225.01	8460	8460
1266.68	220.01	8635	8635
1271.68	215.01	8430	8430
1276.68	210.01	8535	8535
1281.68	205.01	8370	8370
1286.68	200.01	9880	8537.74
1291.68	195.01	8545	8545
1296.68	190.01	8660	8660
1301.68	185.01	8420	8420
1306.68	180.01	8325	8325
1311.68	175.01	8535	8535
1316.68	170.01	9375	8218.6
1321.68	165.01	8080	8080
1326.68	160.01	8325	8325
1331.68	155.01	10010	10010
1336.68	150.01	8110	8110
1341.68	145.01	7995	7995
1346.68	140.01	7775	7775
1351.68	135.01	8270	8270
1356.68	130.01	8260	8260
1361.68	125.01	8410	8410
1366.68	120.01	7980	7980
1371.68	115.01	7620	7620
1376.68	110.01	7485	7485
1381.68	105.01	8660	7828.4
1386.68	100.01	8265	7343.94
1391.68	95.01	7660	7660
1396.68	90.01	8145	8145
1401.68	85.01	6705	6705
1406.68	80.01	6815	6815
1411.68	75.01	7195	7195
1416.68	70.01	6500	6500
1421.68	65.01	6385	6385
1426.68	60.01	5900	5900
1431.68	55.01	6740	6740
1436.68	50.01	5250	5250
1441.68	45.01	5650	5650
1446.68	40.01	4365	4365
1451.68	35.01	3710	3710
1456.68	30.01	4755	4755
1461.68	25.01	6800	6800
1466.68	20.01	4325	4325
1471.68	15.01	4380	4380
1476.68	10.01	3215	3215
1481.68	5.01	2230	2230
1486.68	0.01	510	510