File: data/derived_data/xps/20171212_Gr-NH2/20171212_ExGr_C1s_deconvolution_1.txt
C:\Users\emilbp\PhD\Projects\graphene-production\data\raw_data\xps\20171212_Gr-NH2\20171130_Gr-NH2.vms
C 1s/18
	Characteristic Energy eV	1486.69	Acquisition Time s	1
KE_C 1s/18	BE_C 1s/18	CPS_C 1s/18	C=C (sp2)_1_C 1s/18	C-O/C-N_2_C 1s/18	C=O_3_C 1s/18	p-p* (SUS)_4_C 1s/18	C-C (sp3)_5_C 1s/18	Background_C 1s/18	Envelope_C 1s/18
1186.36	300.334	1137	1192.69	1137	1137	1137	1137	1137	1192.69
1186.56	300.134	1091	1147.2	1091	1091	1091	1091	1091	1147.2
1186.76	299.934	1092	1148.71	1092	1092	1092	1092	1092	1148.71
1186.96	299.734	1094	1151.26	1094	1094	1094	1094	1094	1151.26
1187.16	299.534	1076	1133.83	1076	1076	1076	1076	1076	1133.83
1187.36	299.334	1077	1135.4	1077	1077	1077	1077	1077	1135.4
1187.56	299.134	1086	1144.98	1086	1086	1086	1086	1086	1144.98
1187.76	298.934	1061	1120.63	1061	1061	1061	1061	1061	1120.63
1187.96	298.734	1040	1100.28	1040	1040	1040	1040	1040	1100.28
1188.16	298.534	1068	1128.93	1068	1068	1068	1068	1068	1128.93
1188.36	298.334	1044	1105.62	1044	1044	1044	1044	1044	1105.62
1188.56	298.134	970	1032.36	970	970	970	970	970	1032.36
1188.76	297.934	1039	1102.1	1039	1039	1039	1039	1039	1102.1
1188.96	297.734	1042	1105.84	1042	1042	1042	1042	1042	1105.84
1189.16	297.534	1001	1065.67	1001	1001	1001	1001	1001	1065.67
1189.36	297.334	982	1047.53	982	982	982	982	982	1047.53
1189.56	297.134	1018	1084.39	1018	1018	1018	1018	1018	1084.39
1189.76	296.934	1001	1068.26	1001	1001	1001	1001	1001	1068.26
1189.96	296.734	1076	1144.26	1076	1076	1076	1076	1076	1144.26
1190.16	296.534	990	1059.26	990	990	990	990	990	1059.26
1190.36	296.334	1039	1109.26	1039	1039	1039	1039	1039	1109.26
1190.56	296.134	1022	1093.34	1022	1022	1022	1022	1022	1093.34
1190.76	295.934	1043	1115.52	1043	1043	1043	1043	1043	1115.52
1190.96	295.734	1038	1111.7	1038	1038	1038	1038	1038	1111.7
1191.16	295.534	1083	1157.88	1083	1083	1083	1083	1083	1157.88
1191.36	295.334	1080	1156.23	1080	1080	1080	1080	1080	1156.24
1191.56	295.134	1080	1157.64	1080	1080	1080	1080	1080	1157.65
1191.76	294.934	1091	1170.05	1091	1091	1091.01	1091	1091	1170.06
1191.96	294.734	1162	1242.5	1162	1162	1162.02	1162	1162	1242.52
1192.16	294.534	1135	1217.21	1135	1135	1135.04	1135	1135	1217.25
1192.36	294.334	1191	1274.92	1191	1191	1191.1	1191	1191	1275.02
1192.56	294.134	1131	1216.63	1131	1131	1131.24	1131	1131	1216.86
1192.76	293.934	1205	1263.81	1176.29	1176.29	1176.81	1176.29	1176.29	1264.33
1192.96	293.734	1205	1265.85	1176.23	1176.23	1177.31	1176.23	1176.23	1266.94
1193.16	293.534	1177	1267.9	1176.16	1176.17	1178.36	1176.16	1176.16	1270.1
1193.36	293.334	1264	1269.81	1175.96	1175.97	1180.21	1175.96	1175.96	1274.06
1193.56	293.134	1217	1272.21	1175.83	1175.84	1183.68	1175.83	1175.83	1280.08
1193.76	292.934	1257	1274.69	1175.64	1175.67	1189.6	1175.64	1175.64	1288.67
1193.96	292.734	1311	1277.07	1175.36	1175.42	1199.11	1175.36	1175.36	1300.87
1194.16	292.534	1282	1279.57	1175.12	1175.25	1213.71	1175.12	1175.12	1318.3
1194.36	292.334	1372	1282.48	1174.59	1174.87	1234.5	1174.59	1174.59	1342.67
1194.56	292.134	1336	1285.39	1174.06	1174.64	1262.66	1174.06	1174.06	1374.56
1194.76	291.934	1462	1288.13	1173.37	1174.53	1297.68	1173.37	1173.37	1413.59
1194.96	291.734	1492	1291.23	1172.52	1174.74	1337.41	1172.52	1172.52	1458.34
1195.16	291.534	1480	1294.88	1171.6	1175.74	1377.45	1171.6	1171.6	1504.87
1195.36	291.334	1531	1298.39	1170.55	1178.01	1411.26	1170.55	1170.55	1546.56
1195.56	291.134	1554	1301.86	1169.45	1182.44	1432.16	1169.45	1169.45	1577.56
1195.76	290.934	1604	1306.55	1168.19	1190.07	1434.88	1168.19	1168.19	1595.12
1195.96	290.734	1576	1311.73	1167.07	1202.74	1418.93	1167.07	1167.07	1599.27
1196.16	290.534	1568	1316.94	1165.98	1222.09	1387.68	1165.98	1165.98	1594.76
1196.36	290.334	1604	1322.31	1164.69	1249.78	1347.13	1164.69	1164.69	1589.85
1196.56	290.134	1632	1330.14	1163.4	1287.62	1304.42	1163.4	1163.4	1595.38
1196.76	289.934	1584	1338.01	1162.17	1336.41	1265	1162.15	1162.15	1615.13
1196.96	289.734	1658	1345.77	1160.85	1395.18	1231.86	1160.8	1160.8	1651.25
1197.16	289.534	1742	1355.47	1159.31	1460.53	1205.88	1159.15	1159.15	1703.75
1197.36	289.334	1698	1367.83	1158.03	1526.71	1186.82	1157.52	1157.52	1766.82
1197.56	289.134	1839	1380.03	1157.24	1585.15	1173.27	1155.74	1155.74	1828.47
1197.76	288.934	1881	1392.07	1157.84	1626.67	1163.86	1153.8	1153.8	1879.05
1197.96	288.734	1878	1411.22	1161.93	1643.62	1157.18	1151.65	1151.65	1919.01
1198.16	288.534	1904	1432.17	1173.69	1632.52	1152.31	1149.4	1149.4	1942.49
1198.36	288.334	2003	1452.98	1200.68	1594.95	1148.49	1147.01	1147.01	1956.05
1198.56	288.134	1934	1474.9	1255.09	1537.45	1145.48	1144.76	1144.76	1978.63
1198.76	287.934	2079	1506.24	1353.31	1468.85	1142.6	1142.27	1142.27	2044.2
1198.96	287.734	2203	1543.78	1513.58	1397.96	1139.63	1139.49	1139.49	2176.5
1199.16	287.534	2420	1588.89	1747.34	1331.33	1136.09	1136.03	1136.03	2395.57
1199.36	287.334	2706	1643.8	2046.34	1273.09	1131.8	1131.78	1131.78	2699.69
1199.56	287.134	3081	1711.63	2367.65	1224.77	1126.64	1126.63	1126.63	3050.81
1199.76	286.934	3388	1796.75	2632.64	1186.04	1120.42	1120.45	1120.42	3374.63
1199.96	286.734	3516	1906.07	2756.05	1156.01	1113.7	1114.12	1113.7	3591.16
1200.16	286.534	3651	2048.85	2687.87	1132.83	1106.51	1110.22	1106.51	3660.25
1200.36	286.334	3654	2239.13	2453.73	1115.13	1099.32	1121.95	1099.32	3631.99
1200.56	286.134	3748	2497.22	2129.87	1101.16	1091.98	1187.33	1091.98	3639.63
1200.76	285.934	3849	2854.94	1803.17	1089.54	1084.39	1349.15	1084.39	3843.62
1200.96	285.734	4237	3366.35	1530.1	1078.57	1075.77	1517.93	1075.77	4265.62
1201.16	285.534	4750	4143.63	1329.67	1067.16	1065.69	1472.1	1065.69	4815.5
1201.36	285.334	5912	5454.74	1194.87	1053.63	1052.88	1261.96	1052.88	5806.55
1201.56	285.134	8010	7922.34	1105.76	1035.22	1034.85	1101.44	1034.85	8060.21
1201.76	284.934	12196	12574.1	1039.61	1006.8	1006.63	1020.86	1006.63	12621.4
1201.96	284.734	19395	19484.5	974.627	960.393	960.312	962.424	960.312	19501
1202.16	284.534	25341	24623.8	899.897	894.144	894.108	894.328	894.108	24629.8
1202.36	284.334	21153	21594.4	834.085	831.908	831.893	831.909	831.893	21596.6
1202.56	284.134	12365	12685.6	794.266	793.501	793.494	793.495	793.494	12686.3
1202.76	283.934	6143	5379.24	774.723	774.47	774.468	774.468	774.468	5379.5
1202.96	283.734	2589	2015.7	767.411	767.334	767.333	767.333	767.333	2015.78
1203.16	283.534	1226	1008.01	765.268	765.246	765.246	765.246	765.246	1008.03
1203.36	283.334	753	799.308	765.006	765	765	765	765	799.314
1203.56	283.134	501	504.544	501.002	501	501	501	501	504.545
1203.76	282.934	386	386.268	386	386	386	386	386	386.268
1203.96	282.734	358	358.015	358	358	358	358	358	358.015
1204.16	282.534	287	287.001	287	287	287	287	287	287.001
1204.36	282.334	257	257	257	257	257	257	257	257
1204.56	282.134	283	283	283	283	283	283	283	283
1204.76	281.934	244	244	244	244	244	244	244	244
1204.96	281.734	243	243	243	243	243	243	243	243
1205.16	281.534	234	234	234	234	234	234	234	234
1205.36	281.334	243	243	243	243	243	243	243	243
1205.56	281.134	221	221	221	221	221	221	221	221
1205.76	280.934	193	193	193	193	193	193	193	193
1205.96	280.734	189	189	189	189	189	189	189	189
1206.16	280.534	196	196	196	196	196	196	196	196
1206.36	280.334	203	203	203	203	203	203	203	203
1206.56	280.134	166	166	166	166	166	166	166	166
1206.76	279.934	194	194	194	194	194	194	194	194
1206.96	279.734	187	187	187	187	187	187	187	187
1207.16	279.534	196	196	196	196	196	196	196	196
1207.36	279.334	190	190	190	190	190	190	190	190
1207.56	279.134	189	189	189	189	189	189	189	189
1207.76	278.934	166	166	166	166	166	166	166	166
1207.96	278.734	151	151	151	151	151	151	151	151
1208.16	278.534	199	199	199	199	199	199	199	199
1208.36	278.334	172	172	172	172	172	172	172	172
1208.56	278.134	175	175	175	175	175	175	175	175
1208.76	277.934	181	181	181	181	181	181	181	181
1208.96	277.734	180	180	180	180	180	180	180	180
1209.16	277.534	179	179	179	179	179	179	179	179
1209.36	277.334	181	181	181	181	181	181	181	181
1209.56	277.134	139	139	139	139	139	139	139	139
1209.76	276.934	175	175	175	175	175	175	175	175
1209.96	276.734	157	157	157	157	157	157	157	157
1210.16	276.534	167	167	167	167	167	167	167	167
1210.36	276.334	194	194	194	194	194	194	194	194
1210.56	276.134	157	157	157	157	157	157	157	157
1210.76	275.934	167	167	167	167	167	167	167	167
1210.96	275.734	158	158	158	158	158	158	158	158
1211.16	275.534	173	173	173	173	173	173	173	173
1211.36	275.334	152	152	152	152	152	152	152	152
1211.56	275.134	179	179	179	179	179	179	179	179
1211.76	274.934	169	169	169	169	169	169	169	169
1211.96	274.734	151	151	151	151	151	151	151	151
1212.16	274.534	173	173	173	173	173	173	173	173
1212.36	274.334	158	158	158	158	158	158	158	158