File: data/derived_data/xps/20171212_Gr-NH2/20171212_GrNH2_C1s_deconvolution_1.txt
C:\Users\emilbp\PhD\Projects\graphene-production\data\raw_data\xps\20171212_Gr-NH2\20171130_Gr-NH2.vms
C 1s/8
	Characteristic Energy eV	1486.69	Acquisition Time s	1
KE_C 1s/8	BE_C 1s/8	CPS_C 1s/8	C=C (sp2)_1_C 1s/8	C-O/C-N_2_C 1s/8	C=O_3_C 1s/8	p-p* (SUS)_4_C 1s/8	C-C (sp3)_5_C 1s/8	Background_C 1s/8	Envelope_C 1s/8
1182.87	303.824	1667	1723.97	1667	1667	1667	1667	1667	1723.97
1183.07	303.624	1641	1698.31	1641	1641	1641	1641	1641	1698.31
1183.27	303.424	1597	1654.65	1597	1597	1597	1597	1597	1654.65
1183.47	303.224	1630	1687.99	1630	1630	1630	1630	1630	1687.99
1183.67	303.024	1572	1630.36	1572	1572	1572	1572	1572	1630.36
1183.87	302.824	1662	1720.74	1662	1662	1662	1662	1662	1720.74
1184.07	302.624	1558	1617.11	1558	1558	1558	1558	1558	1617.11
1184.27	302.424	1483	1542.5	1483	1483	1483	1483	1483	1542.5
1184.47	302.224	1514	1573.91	1514	1514	1514	1514	1514	1573.91
1184.67	302.024	1498	1558.32	1498	1498	1498	1498	1498	1558.32
1184.87	301.824	1421	1481.73	1421	1421	1421	1421	1421	1481.73
1185.07	301.624	1403	1464.18	1403	1403	1403	1403	1403	1464.18
1185.27	301.424	1435	1496.63	1435	1435	1435	1435	1435	1496.63
1185.47	301.224	1334	1396.08	1334	1334	1334	1334	1334	1396.08
1185.67	301.024	1377	1439.57	1377	1377	1377	1377	1377	1439.57
1185.87	300.824	1339	1402.06	1339	1339	1339	1339	1339	1402.06
1186.07	300.624	1260	1323.56	1260	1260	1260	1260	1260	1323.56
1186.27	300.424	1307	1371.08	1307	1307	1307	1307	1307	1371.08
1186.47	300.224	1258	1322.63	1258	1258	1258	1258	1258	1322.63
1186.67	300.024	1247	1312.18	1247	1247	1247	1247	1247	1312.18
1186.87	299.824	1273	1338.74	1273	1273	1273	1273	1273	1338.74
1187.07	299.624	1240	1306.35	1240	1240	1240	1240	1240	1306.35
1187.27	299.424	1190	1256.96	1190	1190	1190	1190	1190	1256.96
1187.47	299.224	1206	1273.58	1206	1206	1206	1206	1206	1273.58
1187.67	299.024	1193	1261.25	1193	1193	1193	1193	1193	1261.25
1187.87	298.824	1264	1332.94	1264	1264	1264	1264	1264	1332.94
1188.07	298.624	1267	1336.62	1267	1267	1267	1267	1267	1336.62
1188.27	298.424	1182	1252.36	1182	1182	1182	1182	1182	1252.36
1188.47	298.224	1192	1263.13	1192	1192	1192	1192	1192	1263.13
1188.67	298.024	1204	1275.9	1204	1204	1204	1204	1204	1275.9
1188.87	297.824	1124	1196.7	1124	1124	1124	1124	1124	1196.7
1189.07	297.624	1151	1224.58	1151	1151	1151	1151	1151	1224.58
1189.27	297.424	1160	1234.46	1160	1160	1160	1160	1160	1234.46
1189.47	297.224	1199	1274.34	1199	1199	1199	1199	1199	1274.34
1189.67	297.024	1172	1248.33	1172	1172	1172	1172	1172	1248.33
1189.87	296.824	1157	1234.33	1157	1157	1157	1157	1157	1234.33
1190.07	296.624	1151	1229.34	1151	1151	1151	1151	1151	1229.34
1190.27	296.424	1176	1255.43	1176	1176	1176	1176	1176	1255.43
1190.47	296.224	1129	1209.59	1129	1129	1129	1129	1129	1209.59
1190.67	296.024	1141	1222.76	1141	1141	1141	1141	1141	1222.76
1190.87	295.824	1159	1241.96	1159	1159	1159	1159	1159	1241.96
1191.07	295.624	1175	1259.32	1175	1175	1175	1175	1175	1259.32
1191.27	295.424	1164	1249.67	1164	1164	1164	1164	1164	1249.68
1191.47	295.224	1202	1289.03	1202	1202	1202.01	1202	1202	1289.04
1191.67	295.024	1283	1371.61	1283	1283	1283.03	1283	1283	1371.63
1191.87	294.824	1294	1384.21	1294	1294	1294.06	1294	1294	1384.26
1192.07	294.624	1316	1407.8	1316	1316	1316.13	1316	1316	1407.93
1192.27	294.424	1376	1469.58	1376	1376	1376.27	1376	1376	1469.86
1192.47	294.224	1340	1435.49	1340	1340	1340.56	1340	1340	1436.06
1192.67	294.024	1312	1409.41	1312	1312	1313.13	1312	1312	1410.54
1192.87	293.824	1386	1440.63	1341.21	1341.21	1343.41	1341.21	1341.21	1442.83
1193.07	293.624	1367	1442.88	1341.15	1341.15	1345.27	1341.15	1341.15	1447.01
1193.27	293.424	1434	1444.95	1340.89	1340.9	1348.38	1340.89	1340.89	1452.45
1193.47	293.224	1431	1446.87	1340.49	1340.52	1353.64	1340.49	1340.49	1460.04
1193.67	293.024	1517	1449	1339.81	1339.88	1362.11	1339.81	1339.81	1471.37
1193.87	292.824	1461	1451.44	1339.39	1339.54	1375.93	1339.39	1339.39	1488.14
1194.07	292.624	1572	1453.49	1338.57	1338.91	1396.47	1338.57	1338.57	1511.73
1194.27	292.424	1607	1455.77	1337.55	1338.26	1426.04	1337.55	1337.55	1544.97
1194.47	292.224	1669	1458.19	1336.36	1337.8	1466.6	1336.36	1336.36	1589.87
1194.67	292.024	1755	1460.16	1334.72	1337.54	1518.97	1334.72	1334.72	1647.22
1194.87	291.824	1770	1462.24	1332.93	1338.27	1582.91	1332.92	1332.92	1717.58
1195.07	291.624	1794	1464.98	1331.01	1340.8	1655.45	1331	1331	1799.23
1195.27	291.424	1879	1467.52	1328.9	1346.24	1730.41	1328.88	1328.88	1886.41
1195.47	291.224	1935	1469.74	1326.48	1356.18	1798.55	1326.45	1326.45	1971.6
1195.67	291.024	1992	1473.06	1323.73	1372.95	1849.43	1323.66	1323.66	2048.18
1195.87	290.824	2026	1476.39	1320.96	1399.73	1874.16	1320.8	1320.8	2108.86
1196.07	290.624	2085	1479.4	1317.98	1439.55	1867.38	1317.61	1317.61	2151.48
1196.27	290.424	2152	1483.63	1315	1495.66	1829.85	1314.19	1314.19	2181.56
1196.47	290.224	2262	1488.4	1312.09	1570.18	1767.67	1310.41	1310.41	2207.11
1196.67	290.024	2307	1492.84	1309.69	1663.26	1690.56	1306.3	1306.3	2237.47
1196.87	289.824	2335	1498.35	1308.81	1771.81	1609.24	1302.15	1302.15	2281.77
1197.07	289.624	2387	1506.41	1310.47	1887.62	1532.03	1297.84	1297.84	2343.01
1197.27	289.424	2425	1514.22	1316.44	1997.62	1464.22	1293.29	1293.29	2412.63
1197.47	289.224	2457	1521.8	1329.51	2085.96	1408.22	1288.5	1288.5	2479.98
1197.67	289.024	2528	1535.5	1353.72	2137.32	1364.12	1283.49	1283.49	2540.19
1197.87	288.824	2540	1549.36	1394.72	2141.53	1330.69	1278.37	1278.37	2581.17
1198.07	288.624	2611	1562.89	1459.23	2096.55	1305.73	1272.94	1272.94	2605.59
1198.27	288.424	2652	1584.32	1555.17	2009.79	1287.3	1267.45	1267.45	2634.23
1198.47	288.224	2660	1610.11	1689.86	1895.45	1273.38	1261.78	1261.78	2683.48
1198.67	288.024	2839	1635.15	1867.99	1769.28	1261.91	1255.35	1255.35	2768.28
1198.87	287.824	2928	1663.28	2090.2	1645.93	1252.2	1248.61	1248.61	2905.78
1199.07	287.624	3179	1703.84	2348.01	1534.82	1243.02	1241.12	1241.12	3106.31
1199.27	287.424	3375	1753.72	2622	1440.66	1233.48	1232.51	1232.51	3352.33
1199.47	287.224	3580	1816.42	2881.77	1364.82	1223.52	1223.04	1223.04	3617.41
1199.67	287.024	3855	1896.12	3089.63	1305.49	1212.62	1212.39	1212.39	3866.7
1199.87	286.824	4091	1999.42	3209.78	1259.67	1200.81	1200.71	1200.71	4067.56
1200.07	286.624	4142	2136.35	3218.77	1224.71	1188.71	1188.68	1188.66	4202.57
1200.27	286.424	4196	2321.14	3112.71	1197.76	1176.49	1176.81	1176.47	4279.04
1200.47	286.224	4356	2574.59	2908.15	1175.71	1163.57	1167.49	1163.56	4335.27
1200.67	286.024	4568	2930.05	2638.31	1156.42	1149.72	1179.37	1149.72	4454.99
1200.87	285.824	4936	3442.49	2341.63	1138.37	1134.79	1279.18	1134.79	4797.31
1201.07	285.624	5547	4213.73	2050.18	1119.36	1117.51	1547.62	1117.51	5578.36
1201.27	285.424	6817	5482.02	1784.7	1096.41	1095.48	1791.46	1095.48	6868.15
1201.47	285.224	8975	7878.62	1553.87	1065.98	1065.53	1619.19	1065.53	8921.06
1201.67	285.024	13410	12803.9	1352.46	1020.18	1019.97	1248.13	1019.97	13364.8
1201.87	284.824	21361	21432.8	1163.76	945.587	945.492	1000.95	945.492	21706.6
1202.07	284.624	30128	29557.1	971.383	833.216	833.175	841.76	833.175	29703.9
1202.27	284.424	26788	26747.9	802.998	718.531	718.514	719.386	718.514	26833.3
1202.47	284.224	14224	14755.1	699.353	649.475	649.468	649.526	649.468	14805
1202.67	284.024	5835	5382.03	649.336	620.877	620.874	620.876	620.874	5410.49
1202.87	283.824	2488	1658.35	626.306	610.612	610.611	610.611	610.611	1674.04
1203.07	283.624	1231	761.767	615.335	606.955	606.955	606.955	606.955	770.148
1203.27	283.424	723	621.607	610.36	606.025	606.025	606.025	606.025	625.943
1203.47	283.224	501	502.074	503.169	501	501	501	501	504.243
1203.67	283.024	377	377.051	378.049	377	377	377	377	378.1
1203.87	282.824	330	330.002	330.49	330	330	330	330	330.492
1204.07	282.624	305	305	305.222	305	305	305	305	305.222
1204.27	282.424	294	294	294.097	294	294	294	294	294.097
1204.47	282.224	243	243	243.041	243	243	243	243	243.041
1204.67	282.024	226	226	226.017	226	226	226	226	226.017
1204.87	281.824	237	237	237.007	237	237	237	237	237.007
1205.07	281.624	201	201	201.003	201	201	201	201	201.003
1205.27	281.424	179	179	179.001	179	179	179	179	179.001
1205.47	281.224	180	180	180	180	180	180	180	180
1205.67	281.024	183	183	183	183	183	183	183	183
1205.87	280.824	164	164	164	164	164	164	164	164
1206.07	280.624	175	175	175	175	175	175	175	175
1206.27	280.424	150	150	150	150	150	150	150	150
1206.47	280.224	158	158	158	158	158	158	158	158
1206.67	280.024	163	163	163	163	163	163	163	163
1206.87	279.824	164	164	164	164	164	164	164	164
1207.07	279.624	140	140	140	140	140	140	140	140
1207.27	279.424	150	150	150	150	150	150	150	150
1207.47	279.224	151	151	151	151	151	151	151	151
1207.67	279.024	137	137	137	137	137	137	137	137
1207.87	278.824	156	156	156	156	156	156	156	156
1208.07	278.624	139	139	139	139	139	139	139	139
1208.27	278.424	159	159	159	159	159	159	159	159
1208.47	278.224	141	141	141	141	141	141	141	141
1208.67	278.024	153	153	153	153	153	153	153	153
1208.87	277.824	155	155	155	155	155	155	155	155