File: data/derived_data/xps/20171212_Gr-NH2/20171212_ExGr_N1s_1.txt
C:\Users\emilbp\PhD\Projects\graphene-production\data\raw_data\xps\20171212_Gr-NH2\20171130_Gr-NH2.vms
N 1s/19
	Characteristic Energy eV	1486.69	Acquisition Time s	1.194
KE_N 1s/19	BE_N 1s/19	CPS_N 1s/19	Background_N 1s/19
1076.36	410.334	1787.27	1787.27
1076.46	410.234	1701.01	1701.01
1076.56	410.134	1681.74	1681.74
1076.66	410.034	1716.08	1716.08
1076.76	409.934	1722.78	1722.78
1076.86	409.834	1718.59	1718.59
1076.96	409.734	1731.99	1731.99
1077.06	409.634	1716.92	1716.92
1077.16	409.534	1740.37	1740.37
1077.26	409.434	1720.27	1720.27
1077.36	409.334	1739.53	1739.53
1077.46	409.234	1747.07	1747.07
1077.56	409.134	1736.18	1736.18
1077.66	409.034	1699.33	1699.33
1077.76	408.934	1715.24	1715.24
1077.86	408.834	1716.92	1716.92
1077.96	408.734	1690.95	1690.95
1078.06	408.634	1716.08	1716.08
1078.16	408.534	1709.38	1709.38
1078.26	408.434	1712.73	1712.73
1078.36	408.334	1749.58	1749.58
1078.46	408.234	1699.33	1699.33
1078.56	408.134	1742.88	1742.88
1078.66	408.034	1750.42	1750.42
1078.76	407.934	1749.58	1749.58
1078.86	407.834	1735.34	1735.34
1078.96	407.734	1742.88	1742.88
1079.06	407.634	1791.46	1791.46
1079.16	407.534	1776.38	1776.38
1079.26	407.434	1673.37	1673.37
1079.36	407.334	1704.36	1704.36
1079.46	407.234	1721.11	1721.11
1079.56	407.134	1819.93	1819.93
1079.66	407.034	1819.93	1819.93
1079.76	406.934	1743.72	1743.72
1079.86	406.834	1735.34	1735.34
1079.96	406.734	1717.76	1717.76
1080.06	406.634	1665.83	1665.83
1080.16	406.534	1735.34	1735.34
1080.26	406.434	1758.79	1758.79
1080.36	406.334	1807.37	1807.37
1080.46	406.234	1744.56	1744.56
1080.56	406.134	1712.73	1712.73
1080.66	406.034	1713.57	1713.57
1080.76	405.934	1701.01	1701.01
1080.86	405.834	1786.43	1786.43
1080.96	405.734	1788.11	1788.11
1081.06	405.634	1735.34	1735.34
1081.16	405.534	1732.83	1732.83
1081.26	405.434	1737.86	1737.86
1081.36	405.334	1750.42	1750.42
1081.46	405.234	1737.86	1737.86
1081.56	405.134	1778.89	1778.89
1081.66	405.034	1736.18	1736.18
1081.76	404.934	1758.79	1758.79
1081.86	404.834	1786.43	1786.43
1081.96	404.734	1767.17	1767.17
1082.06	404.634	1741.21	1741.21
1082.16	404.534	1729.48	1729.48
1082.26	404.434	1752.09	1752.09
1082.36	404.334	1747.91	1747.91
1082.46	404.234	1722.78	1722.78
1082.56	404.134	1716.08	1716.08
1082.66	404.034	1772.19	1772.19
1082.76	403.934	1743.72	1743.72
1082.86	403.834	1703.52	1703.52
1082.96	403.734	1750.42	1750.42
1083.06	403.634	1747.91	1747.91
1083.16	403.534	1769.68	1769.68
1083.26	403.434	1732.83	1732.83
1083.36	403.334	1754.61	1754.61
1083.46	403.234	1726.97	1726.97
1083.56	403.134	1712.73	1712.73
1083.66	403.034	1756.28	1756.28
1083.76	402.934	1762.14	1762.14
1083.86	402.834	1791.46	1791.46
1083.96	402.734	1789.78	1789.78
1084.06	402.634	1816.58	1816.58
1084.16	402.534	1792.29	1792.29
1084.26	402.434	1792.29	1792.29
1084.36	402.334	1802.35	1802.35
1084.46	402.234	1819.1	1819.1
1084.56	402.134	1873.53	1873.53
1084.66	402.034	1840.87	1840.87
1084.76	401.934	1897.82	1897.82
1084.86	401.834	1946.4	1946.4
1084.96	401.734	1901.17	1901.17
1085.06	401.634	1915.41	1915.41
1085.16	401.534	1860.13	1860.13
1085.26	401.434	1919.6	1919.6
1085.36	401.334	1888.61	1888.61
1085.46	401.234	1871.02	1871.02
1085.56	401.134	1922.11	1922.11
1085.66	401.034	1868.51	1868.51
1085.76	400.934	1852.6	1852.6
1085.86	400.834	1916.25	1916.25
1085.96	400.734	1850.92	1850.92
1086.06	400.634	1867.67	1867.67
1086.16	400.534	1881.91	1881.91
1086.26	400.434	1860.97	1860.97
1086.36	400.334	1807.37	1807.37
1086.46	400.234	1786.43	1786.43
1086.56	400.134	1835.85	1835.85
1086.66	400.034	1792.29	1792.29
1086.76	399.934	1833.33	1833.33
1086.86	399.834	1848.41	1848.41
1086.96	399.734	1830.82	1830.82
1087.06	399.634	1794.81	1794.81
1087.16	399.534	1826.63	1826.63
1087.26	399.434	1804.02	1804.02
1087.36	399.334	1835.01	1835.01
1087.46	399.234	1787.27	1787.27
1087.56	399.134	1838.36	1838.36
1087.66	399.034	1842.55	1842.55
1087.76	398.934	1820.77	1820.77
1087.86	398.834	1793.13	1793.13
1087.96	398.734	1773.03	1773.03
1088.06	398.634	1798.99	1798.99
1088.16	398.534	1786.43	1786.43
1088.26	398.434	1721.11	1721.11
1088.36	398.334	1727.81	1727.81
1088.46	398.234	1796.48	1796.48
1088.56	398.134	1722.78	1722.78
1088.66	398.034	1704.36	1704.36
1088.76	397.934	1675.88	1675.88
1088.86	397.834	1748.74	1748.74
1088.96	397.734	1756.28	1756.28
1089.06	397.634	1738.69	1738.69
1089.16	397.534	1754.61	1754.61
1089.26	397.434	1764.66	1764.66
1089.36	397.334	1688.44	1688.44
1089.46	397.234	1690.95	1690.95
1089.56	397.134	1748.74	1748.74
1089.66	397.034	1763.82	1763.82
1089.76	396.934	1734.51	1734.51
1089.86	396.834	1745.39	1745.39
1089.96	396.734	1722.78	1722.78
1090.06	396.634	1774.71	1774.71
1090.16	396.534	1771.36	1771.36
1090.26	396.434	1721.94	1721.94
1090.36	396.334	1771.36	1771.36
1090.46	396.234	1737.02	1737.02
1090.56	396.134	1699.33	1699.33
1090.66	396.034	1735.34	1735.34
1090.76	395.934	1705.19	1705.19
1090.86	395.834	1735.34	1735.34
1090.96	395.734	1706.87	1706.87
1091.06	395.634	1736.18	1736.18
1091.16	395.534	1723.62	1723.62
1091.26	395.434	1786.43	1786.43
1091.36	395.334	1789.78	1789.78
1091.46	395.234	1713.57	1713.57
1091.56	395.134	1719.43	1719.43
1091.66	395.034	1751.26	1751.26
1091.76	394.934	1708.54	1708.54
1091.86	394.834	1701.01	1701.01
1091.96	394.734	1732.83	1732.83
1092.06	394.634	1737.02	1737.02
1092.16	394.534	1730.32	1730.32
1092.26	394.434	1714.41	1714.41
1092.36	394.334	1740.37	1740.37
1092.46	394.234	1697.65	1697.65
1092.56	394.134	1718.59	1718.59
1092.66	394.034	1757.12	1757.12
1092.76	393.934	1742.88	1742.88
1092.86	393.834	1685.09	1685.09
1092.96	393.734	1779.73	1779.73
1093.06	393.634	1722.78	1722.78
1093.16	393.534	1712.73	1712.73
1093.26	393.434	1742.04	1742.04
1093.36	393.334	1737.02	1737.02
1093.46	393.234	1776.38	1776.38
1093.56	393.134	1770.52	1770.52
1093.66	393.034	1769.68	1769.68
1093.76	392.934	1791.46	1791.46
1093.86	392.834	1716.92	1716.92
1093.96	392.734	1731.16	1731.16
1094.06	392.634	1734.51	1734.51
1094.16	392.534	1746.23	1746.23
1094.26	392.434	1754.61	1754.61
1094.36	392.334	1752.93	1752.93
1094.46	392.234	1787.27	1787.27
1094.56	392.134	1756.28	1756.28
1094.66	392.034	1729.48	1729.48
1094.76	391.934	1735.34	1735.34
1094.86	391.834	1762.14	1762.14
1094.96	391.734	1734.51	1734.51
1095.06	391.634	1750.42	1750.42
1095.16	391.534	1731.99	1731.99
1095.26	391.434	1764.66	1764.66
1095.36	391.334	1793.13	1793.13
1095.46	391.234	1734.51	1734.51
1095.56	391.134	1759.63	1759.63
1095.66	391.034	1768.01	1768.01
1095.76	390.934	1726.97	1726.97
1095.86	390.834	1742.88	1742.88
1095.96	390.734	1759.63	1759.63
1096.06	390.634	1723.62	1723.62
1096.16	390.534	1778.89	1778.89
1096.26	390.434	1722.78	1722.78
1096.36	390.334	1773.87	1773.87
1096.46	390.234	1854.27	1854.27