File: data/derived_data/xps/20171212_Gr-NH2/20171212_ExGr_C1s_deconvolution_2.txt
C:\Users\emilbp\PhD\Projects\graphene-production\data\raw_data\xps\20171212_Gr-NH2\20171130_Gr-NH2.vms
C 1s/13
	Characteristic Energy eV	1486.69	Acquisition Time s	1
KE_C 1s/13	BE_C 1s/13	CPS_C 1s/13	C=C (sp2)_1_C 1s/13	C-O/C-N_2_C 1s/13	C=O_3_C 1s/13	p-p* (SUS)_4_C 1s/13	C-C (sp3)_5_C 1s/13	Background_C 1s/13	Envelope_C 1s/13
1186.36	300.334	1201	1256.83	1201	1201	1201	1201	1201	1256.83
1186.56	300.134	1199	1255.33	1199	1199	1199	1199	1199	1255.33
1186.76	299.934	1231	1287.87	1231	1231	1231	1231	1231	1287.87
1186.96	299.734	1232	1289.43	1232	1232	1232	1232	1232	1289.43
1187.16	299.534	1123	1180.99	1123	1123	1123	1123	1123	1180.99
1187.36	299.334	1169	1227.56	1169	1169	1169	1169	1169	1227.56
1187.56	299.134	1116	1175.19	1116	1116	1116	1116	1116	1175.19
1187.76	298.934	1153	1212.82	1153	1153	1153	1153	1153	1212.82
1187.96	298.734	1141	1201.46	1141	1141	1141	1141	1141	1201.46
1188.16	298.534	1077	1138.13	1077	1077	1077	1077	1077	1138.13
1188.36	298.334	1145	1206.85	1145	1145	1145	1145	1145	1206.85
1188.56	298.134	1119	1181.58	1119	1119	1119	1119	1119	1181.58
1188.76	297.934	1073	1136.3	1073	1073	1073	1073	1073	1136.3
1188.96	297.734	1105	1169.1	1105	1105	1105	1105	1105	1169.1
1189.16	297.534	1094	1158.94	1094	1094	1094	1094	1094	1158.94
1189.36	297.334	1072	1137.78	1072	1072	1072	1072	1072	1137.78
1189.56	297.134	1069	1135.62	1069	1069	1069	1069	1069	1135.62
1189.76	296.934	1051	1118.59	1051	1051	1051	1051	1051	1118.59
1189.96	296.734	1039	1107.57	1039	1039	1039	1039	1039	1107.57
1190.16	296.534	1089	1158.54	1089	1089	1089	1089	1089	1158.54
1190.36	296.334	1127	1197.56	1127	1127	1127	1127	1127	1197.56
1190.56	296.134	1106	1177.72	1106	1106	1106	1106	1106	1177.72
1190.76	295.934	1085	1157.87	1085	1085	1085	1085	1085	1157.87
1190.96	295.734	1115	1189.02	1115	1115	1115	1115	1115	1189.02
1191.16	295.534	1163	1238.29	1163	1163	1163	1163	1163	1238.29
1191.36	295.334	1129	1205.67	1129	1129	1129	1129	1129	1205.67
1191.56	295.134	1124	1202.05	1124	1124	1124	1124	1124	1202.05
1191.76	294.934	1215	1294.42	1215	1215	1215	1215	1215	1294.42
1191.96	294.734	1170	1251.03	1170	1170	1170	1170	1170	1251.03
1192.16	294.534	1228	1310.71	1228	1228	1228	1228	1228	1310.71
1192.36	294.334	1297	1381.38	1297	1297	1297.01	1297	1297	1381.39
1192.56	294.134	1198	1284.07	1198	1198	1198.04	1198	1198	1284.11
1192.76	293.934	1274	1336.1	1247.96	1247.96	1248.06	1247.96	1247.96	1336.2
1192.96	293.734	1263	1338.11	1247.91	1247.91	1248.18	1247.91	1247.91	1338.39
1193.16	293.534	1271	1340.1	1247.83	1247.84	1248.51	1247.83	1247.83	1340.79
1193.36	293.334	1301	1342.23	1247.72	1247.74	1249.33	1247.72	1247.72	1343.86
1193.56	293.134	1265	1344.8	1247.69	1247.73	1251.27	1247.69	1247.69	1348.43
1193.76	292.934	1365	1347.16	1247.45	1247.54	1254.96	1247.45	1247.45	1354.77
1193.96	292.734	1302	1349.57	1247.25	1247.45	1262.1	1247.25	1247.25	1364.61
1194.16	292.534	1389	1352.33	1246.94	1247.36	1274.51	1246.94	1246.94	1380.31
1194.36	292.334	1398	1355.21	1246.46	1247.3	1294.42	1246.46	1246.46	1404.01
1194.56	292.134	1459	1358.01	1245.9	1247.56	1323.82	1245.9	1245.9	1437.59
1194.76	291.934	1495	1360.58	1245.12	1248.29	1362.73	1245.12	1245.12	1481.37
1194.96	291.734	1571	1364.04	1244.22	1250.07	1408.09	1244.22	1244.22	1533.78
1195.16	291.534	1559	1367.57	1243.28	1253.74	1452.43	1243.28	1243.28	1587.19
1195.36	291.334	1602	1370.93	1242.17	1260.24	1484.73	1242.17	1242.17	1631.57
1195.56	291.134	1622	1374.47	1240.92	1271.08	1495.09	1240.92	1240.92	1658.79
1195.76	290.934	1655	1379.33	1239.62	1288.32	1479.83	1239.62	1239.62	1668.24
1195.96	290.734	1662	1384.25	1238.38	1314.26	1443.63	1238.37	1238.37	1665.39
1196.16	290.534	1674	1389.09	1237.06	1350.98	1396.55	1237.04	1237.04	1662.55
1196.36	290.334	1638	1395.17	1235.72	1400.3	1349.28	1235.68	1235.68	1673.43
1196.56	290.134	1689	1402.72	1234.43	1462.73	1309.01	1234.31	1234.31	1705.96
1196.76	289.934	1739	1410.11	1233.12	1536.44	1278.47	1232.79	1232.79	1759.76
1196.96	289.734	1865	1417.19	1231.79	1616.52	1257.06	1230.95	1230.95	1829.7
1197.16	289.534	1860	1427.64	1231.02	1694.96	1242.94	1228.95	1228.95	1909.71
1197.36	289.334	1935	1439.23	1231.69	1761.18	1233.91	1226.86	1226.86	1985.43
1197.56	289.134	2048	1450.38	1235.14	1803.98	1227.68	1224.34	1224.34	2044.17
1197.76	288.934	2109	1461.64	1244.69	1815.57	1223.2	1221.71	1221.71	2079.97
1197.96	288.734	2076	1481.7	1265.5	1793.34	1219.7	1219.08	1219.08	2103.01
1198.16	288.534	2111	1501.71	1305.78	1740.91	1216.66	1216.41	1216.41	2115.83
1198.36	288.334	2131	1521.64	1377.17	1666.91	1213.74	1213.65	1213.65	2138.52
1198.56	288.134	2193	1543.62	1494.2	1582.46	1210.61	1210.57	1210.57	2199.16
1198.76	287.934	2307	1574.42	1673.38	1497.98	1207.37	1207.36	1207.36	2331.09
1198.96	287.734	2540	1611.05	1927.1	1420.5	1203.47	1203.47	1203.47	2551.71
1199.16	287.534	2841	1655.03	2254.92	1354.03	1198.73	1198.73	1198.73	2866.52
1199.36	287.334	3238	1708.38	2635.57	1299.56	1192.81	1192.81	1192.81	3257.88
1199.56	287.134	3677	1774.14	3019.12	1256.23	1185.58	1185.58	1185.58	3678.34
1199.76	286.934	4057	1856.74	3331.84	1222.13	1177	1177.05	1177	4056.75
1199.96	286.734	4368	1962.97	3498.89	1195.48	1167.66	1168.12	1167.66	4322.48
1200.16	286.534	4390	2102.11	3471	1174.4	1157.84	1161.05	1157.84	4435.05
1200.36	286.334	4386	2287.69	3255.14	1157.46	1147.93	1165.5	1147.93	4422
1200.56	286.134	4314	2539.83	2906.28	1143.45	1138.15	1212.5	1138.15	4387.62
1200.76	285.934	4643	2888.65	2501.1	1130.82	1127.97	1369.88	1127.97	4506.53
1200.96	285.734	4955	3385.72	2109.97	1118.15	1116.66	1702.49	1116.66	4966.34
1201.16	285.534	5762	4136.33	1776.08	1103.91	1103.16	2105.65	1103.16	5812.49
1201.36	285.334	6913	5391.85	1515.43	1086.82	1086.46	2225.71	1086.46	6960.44
1201.56	285.134	8966	7730.04	1323.1	1064.59	1064.42	1906.89	1064.42	8831.36
1201.76	284.934	12735	12122.4	1179.95	1032.35	1032.27	1455.89	1032.27	12693.8
1201.96	284.734	18589	18786.6	1063.81	983.937	983.903	1138.08	983.903	19020.7
1202.16	284.534	24644	24254.6	956.646	915.423	915.408	957.888	915.408	24338.3
1202.36	284.334	22117	22219.4	867.322	847.114	847.108	856.119	847.108	22248.6
1202.56	284.134	13525	13754.3	811.115	801.71	801.707	803.202	801.707	13765.2
1202.76	283.934	6308	6119.42	784.402	780.222	780.221	780.413	780.221	6123.8
1202.96	283.734	2648	2323.86	774.083	772.314	772.314	772.333	772.314	2325.65
1203.16	283.534	1307	1095.87	770.726	770.017	770.016	770.018	770.016	1096.58
1203.36	283.334	746	819.743	769.938	769.667	769.667	769.667	769.667	820.015
1203.56	283.134	514	519.659	514.099	514	514	514	514	519.758
1203.76	282.934	420	420.475	420.034	420	420	420	420	420.51
1203.96	282.734	363	363.03	363.011	363	363	363	363	363.041
1204.16	282.534	329	329.001	329.004	329	329	329	329	329.005
1204.36	282.334	268	268	268.001	268	268	268	268	268.001
1204.56	282.134	273	273	273	273	273	273	273	273
1204.76	281.934	218	218	218	218	218	218	218	218
1204.96	281.734	238	238	238	238	238	238	238	238
1205.16	281.534	231	231	231	231	231	231	231	231
1205.36	281.334	220	220	220	220	220	220	220	220
1205.56	281.134	206	206	206	206	206	206	206	206
1205.76	280.934	224	224	224	224	224	224	224	224
1205.96	280.734	196	196	196	196	196	196	196	196
1206.16	280.534	181	181	181	181	181	181	181	181
1206.36	280.334	189	189	189	189	189	189	189	189
1206.56	280.134	186	186	186	186	186	186	186	186
1206.76	279.934	196	196	196	196	196	196	196	196
1206.96	279.734	170	170	170	170	170	170	170	170
1207.16	279.534	165	165	165	165	165	165	165	165
1207.36	279.334	181	181	181	181	181	181	181	181
1207.56	279.134	176	176	176	176	176	176	176	176
1207.76	278.934	178	178	178	178	178	178	178	178
1207.96	278.734	196	196	196	196	196	196	196	196
1208.16	278.534	171	171	171	171	171	171	171	171
1208.36	278.334	185	185	185	185	185	185	185	185
1208.56	278.134	175	175	175	175	175	175	175	175
1208.76	277.934	148	148	148	148	148	148	148	148
1208.96	277.734	167	167	167	167	167	167	167	167
1209.16	277.534	153	153	153	153	153	153	153	153
1209.36	277.334	165	165	165	165	165	165	165	165
1209.56	277.134	161	161	161	161	161	161	161	161
1209.76	276.934	185	185	185	185	185	185	185	185
1209.96	276.734	181	181	181	181	181	181	181	181
1210.16	276.534	168	168	168	168	168	168	168	168
1210.36	276.334	179	179	179	179	179	179	179	179
1210.56	276.134	160	160	160	160	160	160	160	160
1210.76	275.934	152	152	152	152	152	152	152	152
1210.96	275.734	141	141	141	141	141	141	141	141
1211.16	275.534	167	167	167	167	167	167	167	167
1211.36	275.334	147	147	147	147	147	147	147	147
1211.56	275.134	158	158	158	158	158	158	158	158
1211.76	274.934	170	170	170	170	170	170	170	170
1211.96	274.734	158	158	158	158	158	158	158	158
1212.16	274.534	162	162	162	162	162	162	162	162
1212.36	274.334	154	154	154	154	154	154	154	154