File: data/derived_data/xps/20171212_Gr-NH2/20171212_GrNH2_C1s_deconvolution_2.txt
C:\Users\emilbp\PhD\Projects\graphene-production\data\raw_data\xps\20171212_Gr-NH2\20171130_Gr-NH2.vms
C 1s/3
	Characteristic Energy eV	1486.69	Acquisition Time s	1
KE_C 1s/3	BE_C 1s/3	CPS_C 1s/3	C=C (sp2)_1_C 1s/3	C-O/C-N_2_C 1s/3	C=O_3_C 1s/3	p-p* (SUS)_4_C 1s/3	C-C (sp3)_5_C 1s/3	Background_C 1s/3	Envelope_C 1s/3
1183.08	303.612	1857	1922.88	1857	1857	1857	1857	1857	1922.88
1183.28	303.412	1755	1821.26	1755	1755	1755	1755	1755	1821.26
1183.48	303.212	1832	1898.65	1832	1832	1832	1832	1832	1898.65
1183.68	303.012	1706	1773.06	1706	1706	1706	1706	1706	1773.06
1183.88	302.812	1696	1763.47	1696	1696	1696	1696	1696	1763.47
1184.08	302.612	1674	1741.89	1674	1674	1674	1674	1674	1741.89
1184.28	302.412	1666	1734.33	1666	1666	1666	1666	1666	1734.33
1184.48	302.212	1612	1680.78	1612	1612	1612	1612	1612	1680.78
1184.68	302.012	1625	1694.23	1625	1625	1625	1625	1625	1694.23
1184.88	301.812	1585	1654.71	1585	1585	1585	1585	1585	1654.71
1185.08	301.612	1474	1544.2	1474	1474	1474	1474	1474	1544.2
1185.28	301.412	1541	1611.69	1541	1541	1541	1541	1541	1611.69
1185.48	301.212	1533	1604.21	1533	1533	1533	1533	1533	1604.21
1185.68	301.012	1498	1569.75	1498	1498	1498	1498	1498	1569.75
1185.88	300.812	1427	1499.28	1427	1427	1427	1427	1427	1499.28
1186.08	300.612	1355	1427.84	1355	1355	1355	1355	1355	1427.84
1186.28	300.412	1423	1496.44	1423	1423	1423	1423	1423	1496.44
1186.48	300.212	1399	1473.03	1399	1399	1399	1399	1399	1473.03
1186.68	300.012	1458	1532.63	1458	1458	1458	1458	1458	1532.63
1186.88	299.812	1374	1449.29	1374	1374	1374	1374	1374	1449.29
1187.08	299.612	1330	1405.95	1330	1330	1330	1330	1330	1405.95
1187.28	299.412	1384	1460.6	1384	1384	1384	1384	1384	1460.6
1187.48	299.212	1292	1369.33	1292	1292	1292	1292	1292	1369.33
1187.68	299.012	1339	1417.06	1339	1339	1339	1339	1339	1417.06
1187.88	298.812	1338	1416.8	1338	1338	1338	1338	1338	1416.8
1188.08	298.612	1372	1451.59	1372	1372	1372	1372	1372	1451.59
1188.28	298.412	1356	1436.41	1356	1356	1356	1356	1356	1436.41
1188.48	298.212	1300	1381.23	1300	1300	1300	1300	1300	1381.23
1188.68	298.012	1316	1398.09	1316	1316	1316	1316	1316	1398.09
1188.88	297.812	1243	1326.02	1243	1243	1243	1243	1243	1326.02
1189.08	297.612	1310	1393.95	1310	1310	1310	1310	1310	1393.95
1189.28	297.412	1244	1328.9	1244	1244	1244	1244	1244	1328.9
1189.48	297.212	1315	1400.95	1315	1315	1315	1315	1315	1400.95
1189.68	297.012	1283	1370	1283	1283	1283	1283	1283	1370
1189.88	296.812	1239	1327.05	1239	1239	1239	1239	1239	1327.05
1190.08	296.612	1283	1372.24	1283	1283	1283	1283	1283	1372.24
1190.28	296.412	1239	1329.45	1239	1239	1239	1239	1239	1329.45
1190.48	296.212	1240	1331.65	1240	1240	1240	1240	1240	1331.65
1190.68	296.012	1282	1374.98	1282	1282	1282	1282	1282	1374.99
1190.88	295.812	1354	1448.38	1354	1354	1354	1354	1354	1448.38
1191.08	295.612	1345	1440.77	1345	1345	1345	1345	1345	1440.77
1191.28	295.412	1355	1452.26	1355	1355	1355.01	1355	1355	1452.26
1191.48	295.212	1403	1501.88	1403	1403	1403.01	1403	1403	1501.9
1191.68	295.012	1451	1551.5	1451	1451	1451.03	1451	1451	1551.54
1191.88	294.812	1423	1525.18	1423	1423	1423.07	1423	1423	1525.25
1192.08	294.612	1490	1594.09	1490	1490	1490.16	1490	1490	1594.25
1192.28	294.412	1436	1542.01	1436	1436	1436.33	1436	1436	1542.34
1192.48	294.212	1470	1577.92	1470	1470	1470.68	1470	1470	1578.6
1192.68	294.012	1451	1554.51	1444.32	1444.32	1445.64	1444.32	1444.32	1555.83
1192.88	293.812	1433	1556.76	1444.29	1444.29	1446.79	1444.29	1444.29	1559.26
1193.08	293.612	1505	1558.81	1444.05	1444.05	1448.63	1444.05	1444.05	1563.39
1193.28	293.412	1524	1561.31	1443.92	1443.92	1452.03	1443.92	1443.92	1569.42
1193.48	293.212	1454	1563.89	1443.73	1443.73	1457.6	1443.73	1443.73	1577.76
1193.68	293.012	1549	1566.49	1443.55	1443.55	1466.48	1443.55	1443.55	1589.41
1193.88	292.812	1573	1569.16	1443.16	1443.16	1479.77	1443.16	1443.16	1605.77
1194.08	292.612	1566	1572.22	1442.79	1442.8	1499.25	1442.79	1442.79	1628.68
1194.28	292.412	1712	1574.9	1442.05	1442.06	1525.92	1442.05	1442.05	1658.78
1194.48	292.212	1734	1577.67	1441.22	1441.25	1561.03	1441.22	1441.22	1697.52
1194.68	292.012	1820	1580.86	1440.09	1440.18	1604.35	1440.09	1440.09	1745.2
1194.88	291.812	1736	1584.1	1439.02	1439.24	1654.56	1439.02	1439.02	1799.86
1195.08	291.612	1843	1587.2	1437.8	1438.3	1707.71	1437.8	1437.8	1857.61
1195.28	291.412	1910	1591.27	1436.36	1437.47	1757.77	1436.35	1436.35	1913.81
1195.48	291.212	2028	1595.16	1434.69	1437.04	1797.44	1434.67	1434.67	1960.31
1195.68	291.012	1945	1599.05	1433.03	1437.81	1820.11	1432.99	1432.99	1991.02
1195.88	290.812	1950	1604.31	1431.47	1440.77	1821.38	1431.37	1431.37	2003.81
1196.08	290.612	1953	1610.07	1429.94	1447.23	1800.62	1429.73	1429.73	1998.69
1196.28	290.412	1971	1615.74	1428.46	1459.19	1761.3	1427.98	1427.98	1980.76
1196.48	290.212	1976	1622.8	1427.36	1479.5	1710.03	1426.33	1426.33	1960.71
1196.68	290.012	1989	1631.29	1426.71	1510.88	1654	1424.58	1424.58	1949.14
1196.88	289.812	1946	1639.92	1427.23	1556.49	1599.87	1422.98	1422.98	1954.59
1197.08	289.612	2017	1649.24	1429.33	1616.92	1551.56	1421.1	1421.1	1983.75
1197.28	289.412	2053	1662.15	1434.57	1690.88	1511.48	1419.21	1419.21	2041.46
1197.48	289.212	2098	1674.93	1445.01	1771.85	1479.92	1417.2	1417.2	2120.13
1197.68	289.012	2234	1687.4	1463.57	1848.48	1455.93	1414.87	1414.87	2210.77
1197.88	288.812	2321	1707.16	1494.61	1906.13	1438.15	1412.21	1412.21	2309.43
1198.08	288.612	2407	1726.88	1543.91	1931.92	1425.07	1409.23	1409.23	2400.08
1198.28	288.412	2492	1746.32	1618.43	1918.32	1415.32	1405.98	1405.98	2480.45
1198.48	288.212	2573	1776.16	1725.59	1868.32	1407.71	1402.39	1402.39	2570.62
1198.68	288.012	2690	1809.83	1872.01	1792.53	1401.35	1398.41	1398.41	2680.49
1198.88	287.812	2857	1843.15	2061.64	1705.5	1395.65	1394.08	1394.08	2823.68
1199.08	287.612	3001	1882.67	2291.38	1620.36	1390.18	1389.38	1389.38	3016.46
1199.28	287.412	3267	1936.67	2549.01	1545.55	1384.22	1383.82	1383.82	3263.98
1199.48	287.212	3523	2003.38	2811.96	1484.69	1377.67	1377.47	1377.47	3545.28
1199.68	287.012	3804	2086.97	3047.87	1437.75	1370.26	1370.17	1370.17	3832.33
1199.88	286.812	4230	2193.38	3220.17	1402.34	1361.78	1361.74	1361.74	4092.47
1200.08	286.612	4296	2331.93	3297.16	1375.77	1352.54	1352.53	1352.53	4299.83
1200.28	286.412	4424	2516.32	3263.3	1355.9	1343.15	1343.16	1343.14	4449.27
1200.48	286.212	4541	2766.31	3123.55	1340.04	1333.36	1333.77	1333.36	4563.61
1200.68	286.012	4620	3113.24	2901.77	1326.62	1323.27	1328.18	1323.26	4700.02
1200.88	285.812	4916	3606.49	2632.22	1314.08	1312.47	1350.21	1312.47	4965.6
1201.08	285.612	5655	4330.52	2348.98	1300.19	1299.45	1482.9	1299.45	5564.24
1201.28	285.412	6757	5463.96	2080.07	1283.95	1283.63	1812.93	1283.63	6790.04
1201.48	285.212	8766	7463.38	1841.04	1262.32	1262.18	2058.68	1262.18	8838.88
1201.68	285.012	12611	11520.4	1634.47	1230.61	1230.55	1800.85	1230.55	12494.6
1201.88	284.812	20013	19682.2	1450.09	1178.97	1178.95	1388.79	1178.95	20163.2
1202.08	284.612	30973	31017.8	1270.76	1095.39	1095.38	1140.71	1095.38	31238.5
1202.28	284.412	35288	34833.1	1098.85	989.441	989.438	995.615	989.438	34948.7
1202.48	284.212	22899	23457.7	975.276	909.376	909.375	909.918	909.375	23524.2
1202.68	284.012	9896	9825.6	911.398	872.991	872.99	873.021	872.99	9864.04
1202.88	283.812	4019	3088.46	881.617	859.957	859.957	859.958	859.957	3110.12
1203.08	283.612	1898	1217.56	867.304	855.494	855.494	855.494	855.494	1229.37
1203.28	283.412	1073	893.618	860.614	854.388	854.388	854.388	854.388	899.844
1203.48	283.212	671	673.844	674.173	671	671	671	671	677.017
1203.68	283.012	489	489.139	490.563	489	489	489	489	490.702
1203.88	282.812	365	365.005	365.745	365	365	365	365	365.749
1204.08	282.612	361	361	361.345	361	361	361	361	361.345
1204.28	282.412	324	324	324.154	324	324	324	324	324.154
1204.48	282.212	315	315	315.067	315	315	315	315	315.067
1204.68	282.012	275	275	275.028	275	275	275	275	275.028
1204.88	281.812	242	242	242.011	242	242	242	242	242.011
1205.08	281.612	212	212	212.004	212	212	212	212	212.004
1205.28	281.412	238	238	238.002	238	238	238	238	238.002
1205.48	281.212	211	211	211.001	211	211	211	211	211.001
1205.68	281.012	182	182	182	182	182	182	182	182
1205.88	280.812	193	193	193	193	193	193	193	193
1206.08	280.612	175	175	175	175	175	175	175	175
1206.28	280.412	183	183	183	183	183	183	183	183
1206.48	280.212	197	197	197	197	197	197	197	197
1206.68	280.012	187	187	187	187	187	187	187	187
1206.88	279.812	187	187	187	187	187	187	187	187
1207.08	279.612	153	153	153	153	153	153	153	153
1207.28	279.412	167	167	167	167	167	167	167	167
1207.48	279.212	145	145	145	145	145	145	145	145
1207.68	279.012	147	147	147	147	147	147	147	147
1207.88	278.812	153	153	153	153	153	153	153	153
1208.08	278.612	157	157	157	157	157	157	157	157
1208.28	278.412	147	147	147	147	147	147	147	147
1208.48	278.212	181	181	181	181	181	181	181	181
1208.68	278.012	152	152	152	152	152	152	152	152
1208.88	277.812	167	167	167	167	167	167	167	167
1209.08	277.612	155	155	155	155	155	155	155	155