File: data/raw_data/uvvis/20171026_Azodye/171026_Azo_C_0.25mM.csv
171016_Azo_C.csv;;Kemi1\Kemi01;26-10-2017 10:57:23;GENESYS 10S UV-Vis;2L9T161212;4.006
nm;A
200;3.4787
203;3.6077
206;3.6374
209;3.6372
212;3.6763
215;3.7058
218;3.7502
221;3.8093
224;3.9077
227;4.0407
230;4.1373
233;3.9886
236;4.0186
239;3.9687
242;4.1007
245;4.0528
248;4.1663
251;3.9683
254;3.9083
257;3.8692
260;4.0214
263;3.8305
266;3.8318
269;3.8269
272;3.8675
275;3.8004
278;3.806
281;3.8454
284;3.8197
287;3.8236
290;3.8785
293;3.8369
296;3.861
299;3.2297
302;2.4176
305;2.093
308;2.0429
311;2.1269
314;2.3022
317;2.5171
320;2.7623
323;3.0281
326;3.2353
329;3.4059
332;3.5295
335;3.5787
338;3.5883
341;3.5803
344;3.6426
347;3.5774
350;3.5265
353;3.465
356;3.2924
359;2.8944
362;2.4129
365;1.9075
368;1.5186
371;1.218
374;1.021
377;0.9094
380;0.8587
383;0.8467
386;0.8644
389;0.8994
392;0.9475
395;1.0041
398;1.0672
401;1.1269
404;1.1873
407;1.2453
410;1.3003
413;1.3476
416;1.3896
419;1.4244
422;1.4506
425;1.4678
428;1.4771
431;1.4791
434;1.4756
437;1.4667
440;1.4536
443;1.4366
446;1.4174
449;1.3976
452;1.377
455;1.3574
458;1.3402
461;1.327
464;1.3177
467;1.3136
470;1.3149
473;1.3215
476;1.3319
479;1.346
482;1.3614
485;1.3756
488;1.3908
491;1.4041
494;1.413
497;1.4189
500;1.4201
503;1.4164
506;1.4087
509;1.3955
512;1.3767
515;1.3529
518;1.324
521;1.2902
524;1.2505
527;1.207
530;1.1616
533;1.1062
536;1.0509
539;0.9933
542;0.9331
545;0.8706
548;0.8085
551;0.7458
554;0.6857
557;0.6249
560;0.5653
563;0.5103
566;0.4561
569;0.4052
572;0.3585
575;0.3155
578;0.2768
581;0.2415
584;0.2101
587;0.1814
590;0.1561
593;0.1336
596;0.1144
599;0.0987
602;0.0835
605;0.0712
608;0.0608
611;0.0519
614;0.0438
617;0.0379
620;0.032
623;0.0278
626;0.0241
629;0.0207
632;0.0176
635;0.0156
638;0.0134
641;0.0122
644;0.0108
647;0.0095
650;0.0088
653;0.0083
656;0.0072
659;0.0067
662;0.0058
665;0.0062
668;0.0057
671;0.0055
674;0.0052
677;0.0048
680;0.0048
683;0.0051
686;0.004
689;0.0052
692;0.0046
695;0.0044
698;0.0041
701;0.0039
704;0.0038
707;0.0037
710;0.0031
713;0.0037
716;0.0035
719;0.0033
722;0.0029
725;0.0026
728;0.0037
731;0.0028
734;0.0035
737;0.0031
740;0.0033
743;0.0032
746;0.0024
749;0.0031
752;0.0032
755;0.0027
758;0.0026
761;0.0028
764;0.0027
767;0.0023
770;0.0031
773;0.0026
776;0.0024
779;0.0027
782;0.002
785;0.0024
788;0.0015
791;0.0014
794;0.0023
797;0.0028
800;0.0022