File: data/raw_data/uvvis/20171026_Azodye/171026_Azo_A_1.0mM.csv
171026_Azo_A.csv;;Kemi1\Kemi01;26-10-2017 11:08:17;GENESYS 10S UV-Vis;2L9T161212;4.006
nm;A
200;3.5501
203;3.7821
206;3.806
209;3.8374
212;3.9323
215;3.9521
218;3.969
221;4.0716
224;4.2664
227;4.4592
230;4.6284
233;4.1997
236;4.2515
239;4.2157
242;4.599
245;4.4824
248;4.5862
251;4.1974
254;4.1225
257;4.2435
260;4.5268
263;4.2885
266;4.239
269;4.3118
272;4.5607
275;4.2461
278;4.25
281;4.1616
284;4.1819
287;9.9999
290;4.1342
293;4.1577
296;4.2497
299;4.2083
302;4.273
305;4.3332
308;4.2173
311;4.2271
314;4.1688
317;4.0763
320;4.1101
323;4.2155
326;4.0498
329;4.115
332;4.0077
335;3.9761
338;4.0208
341;4.082
344;4.1932
347;4.1081
350;4.0058
353;4.1011
356;4.027
359;3.9606
362;3.9497
365;3.5355
368;3.2422
371;3.0014
374;2.8311
377;2.7481
380;2.7417
383;2.7957
386;2.9039
389;3.0348
392;3.1898
395;3.3557
398;3.5013
401;3.6243
404;3.8013
407;3.8378
410;3.8102
413;3.892
416;3.9124
419;3.9392
422;4.0146
425;3.9625
428;3.7946
431;3.7375
434;3.7031
437;3.7324
440;3.7832
443;3.7521
446;3.7812
449;3.7566
452;3.8129
455;3.831
458;3.861
461;4.001
464;3.9439
467;3.9817
470;3.9936
473;3.9661
476;4.033
479;4.0685
482;4.3704
485;4.2268
488;4.3547
491;4.2343
494;4.114
497;4.1251
500;4.0399
503;4.0469
506;3.9888
509;3.9911
512;3.9803
515;3.9254
518;4.0206
521;3.9898
524;3.9081
527;3.9154
530;3.7918
533;3.6941
536;3.5152
539;3.3523
542;3.166
545;2.9635
548;2.7689
551;2.5551
554;2.3517
557;2.1417
560;1.9399
563;1.7532
566;1.5672
569;1.3934
572;1.2322
575;1.0857
578;0.9549
581;0.8325
584;0.7252
587;0.6278
590;0.5412
593;0.4641
596;0.3988
599;0.3444
602;0.2929
605;0.2509
608;0.2147
611;0.1832
614;0.1573
617;0.1355
620;0.1158
623;0.0993
626;0.0868
629;0.0758
632;0.066
635;0.0577
638;0.0503
641;0.045
644;0.04
647;0.0354
650;0.0318
653;0.0299
656;0.027
659;0.0254
662;0.023
665;0.0215
668;0.0207
671;0.0192
674;0.0181
677;0.017
680;0.0162
683;0.0163
686;0.0155
689;0.0146
692;0.0136
695;0.0124
698;0.013
701;0.0115
704;0.0116
707;0.0105
710;0.0099
713;0.0099
716;0.0104
719;0.0094
722;0.0096
725;0.0093
728;0.0087
731;0.0082
734;0.0089
737;0.0077
740;0.0078
743;0.0079
746;0.0071
749;0.0072
752;0.0076
755;0.0071
758;0.0076
761;0.0073
764;0.0072
767;0.0057
770;0.0059
773;0.0059
776;0.0065
779;0.0068
782;0.0064
785;0.0056
788;0.0056
791;0.0054
794;0.0056
797;0.0059
800;0.006