File: data/raw_data/uvvis/20171026_Azodye/171026_Azo_B_0.5mM.csv
171026_Azo_B.csv;;Kemi1\Kemi01;26-10-2017 11:02:57;GENESYS 10S UV-Vis;2L9T161212;4.006
nm;A
200;3.469
203;3.6262
206;3.7368
209;3.7089
212;3.8449
215;3.8929
218;3.966
221;4.0366
224;4.3023
227;4.3084
230;4.5289
233;4.1428
236;4.1488
239;4.1243
242;4.4561
245;4.3604
248;4.5294
251;4.1608
254;4.3756
257;4.1761
260;4.3971
263;4.1758
266;4.1618
269;4.1587
272;4.333
275;4.1582
278;4.1895
281;4.0807
284;4.0585
287;4.1768
290;4.1089
293;4.0899
296;4.1749
299;3.9542
302;3.4229
305;3.0667
308;2.9652
311;2.9712
314;3.1018
317;3.2614
320;3.4442
323;3.6752
326;3.8163
329;3.8849
332;3.8927
335;4.0157
338;3.9322
341;3.9083
344;4.033
347;3.9408
350;3.8529
353;3.9002
356;3.758
359;3.4211
362;2.9679
365;2.479
368;2.1007
371;1.8084
374;1.6166
377;1.513
380;1.4751
383;1.4835
386;1.5303
389;1.6001
392;1.6885
395;1.7891
398;1.8994
401;2.0053
404;2.112
407;2.2108
410;2.3068
413;2.3878
416;2.4597
419;2.522
422;2.5675
425;2.5959
428;2.6063
431;2.6041
434;2.5971
437;2.5778
440;2.5638
443;2.5314
446;2.5026
449;2.467
452;2.4325
455;2.4
458;2.3725
461;2.3527
464;2.3358
467;2.3292
470;2.3299
473;2.3415
476;2.3605
479;2.3826
482;2.4141
485;2.4368
488;2.4638
491;2.4839
494;2.4957
497;2.5072
500;2.5051
503;2.496
506;2.4824
509;2.4585
512;2.4266
515;2.385
518;2.3408
521;2.2783
524;2.21
527;2.1366
530;2.0578
533;1.9599
536;1.8627
539;1.761
542;1.6562
545;1.5443
548;1.435
551;1.3236
554;1.2167
557;1.1086
560;1.0043
563;0.906
566;0.8103
569;0.7201
572;0.6373
575;0.5612
578;0.4932
581;0.4296
584;0.3745
587;0.3239
590;0.2791
593;0.239
596;0.2052
599;0.1767
602;0.1502
605;0.129
608;0.1092
611;0.0935
614;0.08
617;0.0683
620;0.0587
623;0.05
626;0.0428
629;0.038
632;0.0331
635;0.0288
638;0.0256
641;0.0218
644;0.0193
647;0.0174
650;0.0158
653;0.0142
656;0.0131
659;0.0126
662;0.0116
665;0.0103
668;0.0099
671;0.0091
674;0.0083
677;0.008
680;0.0069
683;0.0075
686;0.0071
689;0.0068
692;0.0075
695;0.006
698;0.0062
701;0.0055
704;0.0052
707;0.0046
710;0.0052
713;0.0051
716;0.0043
719;0.0048
722;0.0046
725;0.0042
728;0.0044
731;0.0038
734;0.0044
737;0.0043
740;0.0036
743;0.0041
746;0.0039
749;0.0031
752;0.0033
755;0.0035
758;0.0032
761;0.0037
764;0.0032
767;0.0029
770;0.0029
773;0.003
776;0.0029
779;0.0024
782;0.003
785;0.0024
788;0.0023
791;0.002
794;0.0014
797;0.0027
800;0.0025