File: data/raw_data/uvvis/20171026_Azodye/171026_Azo_D_0.05mM.csv
171026_Azo_D.csv;;Kemi1\Kemi01;26-10-2017 10:51:49;GENESYS 10S UV-Vis;2L9T161212;4.006
nm;A
200;3.0287
203;3.1588
206;3.1738
209;3.1079
212;3.1028
215;3.0937
218;3.1027
221;3.1066
224;3.1645
227;3.1987
230;3.2308
233;3.1986
236;3.1962
239;3.1756
242;3.193
245;3.1539
248;3.1631
251;3.101
254;3.05
257;3.0111
260;3.0134
263;2.9613
266;2.934
269;2.9155
272;2.917
275;2.8987
278;2.901
281;2.908
284;2.9089
287;2.9282
290;2.9216
293;2.9152
296;2.902
299;2.2283
302;1.3894
305;1.119
308;1.1386
311;1.2839
314;1.5101
317;1.7649
320;2.0387
323;2.3172
326;2.5359
329;2.6865
332;2.7818
335;2.8203
338;2.8322
341;2.8254
344;2.8434
347;2.8097
350;2.781
353;2.746
356;2.641
359;2.3401
362;1.883
365;1.3596
368;0.9495
371;0.6319
374;0.4199
377;0.2933
380;0.2235
383;0.1846
386;0.1678
389;0.1634
392;0.1656
395;0.1716
398;0.1799
401;0.1886
404;0.1974
407;0.206
410;0.2144
413;0.2213
416;0.2276
419;0.2325
422;0.236
425;0.2379
428;0.2388
431;0.2383
434;0.2379
437;0.2366
440;0.2345
443;0.2319
446;0.2293
449;0.2266
452;0.2239
455;0.2213
458;0.2195
461;0.2177
464;0.217
467;0.2169
470;0.2177
473;0.2194
476;0.2214
479;0.2241
482;0.2271
485;0.2295
488;0.2319
491;0.2347
494;0.2359
497;0.2368
500;0.2366
503;0.2363
506;0.2345
509;0.2319
512;0.2284
515;0.2242
518;0.2193
521;0.213
524;0.2058
527;0.1981
530;0.1901
533;0.1804
536;0.171
539;0.1612
542;0.1509
545;0.1405
548;0.1302
551;0.1202
554;0.1099
557;0.1002
560;0.0902
563;0.0817
566;0.0728
569;0.0648
572;0.0571
575;0.0506
578;0.0441
581;0.0381
584;0.0338
587;0.029
590;0.0252
593;0.0219
596;0.0188
599;0.0163
602;0.0142
605;0.0121
608;0.0108
611;0.0091
614;0.0077
617;0.0066
620;0.0058
623;0.0056
626;0.0045
629;0.0044
632;0.0035
635;0.0033
638;0.0026
641;0.0034
644;0.0025
647;0.0026
650;0.0029
653;0.0028
656;0.0024
659;0.0021
662;0.0021
665;0.0015
668;0.0017
671;0.0017
674;0.0014
677;0.0017
680;0.001
683;0.0016
686;0.0016
689;0.0017
692;0.0011
695;0.0017
698;0.0015
701;0.0008
704;0.0011
707;0.0021
710;0.0015
713;0.0015
716;0.0016
719;0.0013
722;0.0012
725;0.0014
728;0.0016
731;0.0009
734;0.0016
737;0.0013
740;0.0016
743;0.0013
746;0.0015
749;0.001
752;0.0013
755;0.0019
758;0.0007
761;0.0018
764;0.0011
767;0.0015
770;0.0015
773;0.0006
776;0.0015
779;0.0009
782;0.0014
785;0.0018
788;0.001
791;0.0014
794;0.0013
797;0.0002
800;0.001