File: data/derived_data/raman/20171207_GrNH2_from_20171130/20171207_GrNH2_map_1/2D FWHM.txt
#XList		#YList		#IList
-1.838599	-0.760625	89.6648
-1.438599	-0.760625	86.9794
-1.038599	-0.760625	85.7591
-0.638599	-0.760625	82.8019
-0.238599	-0.760625	77.4262
0.161401	-0.760625	83.9176
0.561401	-0.760625	94.3524
0.961401	-0.760625	105.619
1.361401	-0.760625	103.97
1.761401	-0.760625	98.3265
2.161401	-0.760625	104.888
-1.638599	-0.560625	76.7108
-1.238599	-0.560625	76.5285
-0.838599	-0.560625	82.215
-0.438599	-0.560625	83.0899
-0.038599	-0.560625	72.4454
0.361401	-0.560625	80.6145
0.761401	-0.560625	90.0312
1.161401	-0.560625	122.202
1.561401	-0.560625	112.397
1.961401	-0.560625	84.6912
-1.838599	-0.360625	80.5164
-1.438599	-0.360625	80.6514
-1.038599	-0.360625	83.088
-0.638599	-0.360625	82.6381
-0.238599	-0.360625	80.6229
0.161401	-0.360625	77.9872
0.561401	-0.360625	78.9639
0.961401	-0.360625	90.2499
1.361401	-0.360625	121.983
1.761401	-0.360625	84.2883
2.161401	-0.360625	87.2049
-1.638599	-0.160625	82.285
-1.238599	-0.160625	82.4429
-0.838599	-0.160625	84.0468
-0.438599	-0.160625	86.7113
-0.038599	-0.160625	77.2257
0.361401	-0.160625	80.3082
0.761401	-0.160625	80.4146
1.161401	-0.160625	98.9209
1.561401	-0.160625	96.5038
1.961401	-0.160625	103.737
-1.838599	0.039375	90.5113
-1.438599	0.039375	82.1997
-1.038599	0.039375	82.5533
-0.638599	0.039375	80.4455
-0.238599	0.039375	85.2755
0.161401	0.039375	74.5225
0.561401	0.039375	77.4753
0.961401	0.039375	81.4743
1.361401	0.039375	122.481
1.761401	0.039375	88.9771
2.161401	0.039375	85.8096
-1.638599	0.239375	75.9816
-1.238599	0.239375	77.4005
-0.838599	0.239375	80.5615
-0.438599	0.239375	80.5144
-0.038599	0.239375	89.637
0.361401	0.239375	76.9765
0.761401	0.239375	89.7046
1.161401	0.239375	102.032
1.561401	0.239375	92.846
1.961401	0.239375	93.9352
-1.838599	0.439375	86.4363
-1.438599	0.439375	73.9816
-1.038599	0.439375	78.1277
-0.638599	0.439375	79.1946
-0.238599	0.439375	85.2969
0.161401	0.439375	106.582
0.561401	0.439375	98.867
0.961401	0.439375	90.0497
1.361401	0.439375	111.688
1.761401	0.439375	87.2524
2.161401	0.439375	102.312
-1.638599	0.639375	78.8509
-1.238599	0.639375	79.6187
-0.838599	0.639375	78.3789
-0.438599	0.639375	84.8197
-0.038599	0.639375	103.689
0.361401	0.639375	107.92
0.761401	0.639375	96.5517
1.161401	0.639375	122.653
1.561401	0.639375	92.2787
1.961401	0.639375	92.6431
-1.838599	0.839375	81.2252
-1.438599	0.839375	72.992
-1.038599	0.839375	80.4021
-0.638599	0.839375	87.7649
-0.238599	0.839375	92.2745
0.161401	0.839375	99.7223
0.561401	0.839375	95.0416
0.961401	0.839375	106.473
1.361401	0.839375	104.132
1.761401	0.839375	104.223
2.161401	0.839375	94.1569
-1.638599	1.039375	61.641
-1.238599	1.039375	77.8907
-0.838599	1.039375	92.424
-0.438599	1.039375	86.7936
-0.038599	1.039375	109.251
0.361401	1.039375	70.3596
0.761401	1.039375	111.568
1.161401	1.039375	118.516
1.561401	1.039375	311.607
1.961401	1.039375	102.639
-1.838599	1.239375	55.4638
-1.438599	1.239375	69.263
-1.038599	1.239375	85.6585
-0.638599	1.239375	83.7685
-0.238599	1.239375	93.8785
0.161401	1.239375	171.124
0.561401	1.239375	77.0461
0.961401	1.239375	71.57
1.361401	1.239375	197.184
1.761401	1.239375	54.9008
2.161401	1.239375	271.31
-1.638599	1.439375	93.6435
-1.238599	1.439375	70.2956
-0.838599	1.439375	72.3324
-0.438599	1.439375	144.726
-0.038599	1.439375	1.308779
0.361401	1.439375	14.1244
0.761401	1.439375	24.3562
1.161401	1.439375	302.875
1.561401	1.439375	257.319
1.961401	1.439375	125.191
-1.838599	1.639375	25.7974
-1.438599	1.639375	164.573
-1.038599	1.639375	79.675
-0.638599	1.639375	123.861
-0.238599	1.639375	374.578
0.161401	1.639375	2595.04
0.561401	1.639375	153.993
0.961401	1.639375	134.039
1.361401	1.639375	113.224
1.761401	1.639375	53.2024
2.161401	1.639375	116.33
-1.638599	1.839375	151.852
-1.238599	1.839375	131.934
-0.838599	1.839375	360.402
-0.438599	1.839375	526.408
-0.038599	1.839375	57.9466
0.361401	1.839375	38.6298
0.761401	1.839375	94.7378
1.161401	1.839375	125.968
1.561401	1.839375	98.5428
1.961401	1.839375	137.802
-1.838599	2.039375	35.2017
-1.438599	2.039375	2.446048
-1.038599	2.039375	16.945
-0.638599	2.039375	454.638
-0.238599	2.039375	382.238
0.161401	2.039375	7.891399
0.561401	2.039375	45.9363
0.961401	2.039375	103.136
1.361401	2.039375	111.609
1.761401	2.039375	98.6357
2.161401	2.039375	70.6117
-1.638599	2.239375	1322.13
-1.238599	2.239375	1604.86
-0.838599	2.239375	88.697
-0.438599	2.239375	1330.42
-0.038599	2.239375	203.668
0.361401	2.239375	180.02
0.761401	2.239375	113.965
1.161401	2.239375	117.13
1.561401	2.239375	131.846
1.961401	2.239375	87.311
2.161401	2.239375	74.1059