File: data/derived_data/raman/20171207_GrNH2_from_20171130/20171207_GrNH2_map_1/2D int.txt
#XList		#YList		#IList
-1.838599	-0.760625	71.3053
-1.438599	-0.760625	130.44
-1.038599	-0.760625	124.485
-0.638599	-0.760625	138.447
-0.238599	-0.760625	176.354
0.161401	-0.760625	178.604
0.561401	-0.760625	173.936
0.961401	-0.760625	90.2731
1.361401	-0.760625	80.8108
1.761401	-0.760625	34.0492
2.161401	-0.760625	55.4976
-1.638599	-0.560625	139.193
-1.238599	-0.560625	147.647
-0.838599	-0.560625	123.5
-0.438599	-0.560625	128.942
-0.038599	-0.560625	182.68
0.361401	-0.560625	201.402
0.761401	-0.560625	157.377
1.161401	-0.560625	71.7634
1.561401	-0.560625	51.8712
1.961401	-0.560625	23.6544
-1.838599	-0.360625	117.522
-1.438599	-0.360625	145.498
-1.038599	-0.360625	144.348
-0.638599	-0.360625	115.143
-0.238599	-0.360625	152.096
0.161401	-0.360625	189.799
0.561401	-0.360625	198.071
0.961401	-0.360625	129.18
1.361401	-0.360625	51.8218
1.761401	-0.360625	20.639
2.161401	-0.360625	25.5636
-1.638599	-0.160625	152.184
-1.238599	-0.160625	129.294
-0.838599	-0.160625	125.467
-0.438599	-0.160625	118.43
-0.038599	-0.160625	172.925
0.361401	-0.160625	200.608
0.761401	-0.160625	177.684
1.161401	-0.160625	79.29
1.561401	-0.160625	32.6387
1.961401	-0.160625	20.3494
-1.838599	0.039375	55.3708
-1.438599	0.039375	109.198
-1.038599	0.039375	111.368
-0.638599	0.039375	120.869
-0.238599	0.039375	123.163
0.161401	0.039375	176.349
0.561401	0.039375	180.962
0.961401	0.039375	134.83
1.361401	0.039375	51.9411
1.761401	0.039375	81.1688
2.161401	0.039375	36.632
-1.638599	0.239375	98.3975
-1.238599	0.239375	121.987
-0.838599	0.239375	142.777
-0.438599	0.239375	125.697
-0.038599	0.239375	121.817
0.361401	0.239375	137.513
0.761401	0.239375	142.377
1.161401	0.239375	86.4794
1.561401	0.239375	103.224
1.961401	0.239375	132.592
-1.838599	0.439375	27.083
-1.438599	0.439375	124.919
-1.038599	0.439375	132.011
-0.638599	0.439375	148.291
-0.238599	0.439375	117.174
0.161401	0.439375	91.5662
0.561401	0.439375	97.6953
0.961401	0.439375	105.573
1.361401	0.439375	55.0116
1.761401	0.439375	138.369
2.161401	0.439375	110.457
-1.638599	0.639375	63.7516
-1.238599	0.639375	121.094
-0.838599	0.639375	122.674
-0.438599	0.639375	108.703
-0.038599	0.639375	82.1295
0.361401	0.639375	55.2416
0.761401	0.639375	66.9204
1.161401	0.639375	61.5717
1.561401	0.639375	28.5108
1.961401	0.639375	69.6102
-1.838599	0.839375	6.915318
-1.438599	0.839375	91.0507
-1.038599	0.839375	104.72
-0.638599	0.839375	101.536
-0.238599	0.839375	70.3833
0.161401	0.839375	42.8333
0.561401	0.839375	18.379
0.961401	0.839375	25.1383
1.361401	0.839375	21.2631
1.761401	0.839375	11.2487
2.161401	0.839375	22.2101
-1.638599	1.039375	19.002
-1.238599	1.039375	80.0658
-0.838599	1.039375	75.7569
-0.438599	1.039375	60.1703
-0.038599	1.039375	21.6065
0.361401	1.039375	10.9133
0.761401	1.039375	4.216054
1.161401	1.039375	8.171942
1.561401	1.039375	4.108701
1.961401	1.039375	5.502538
-1.838599	1.239375	2.225930
-1.438599	1.239375	27.9853
-1.038599	1.239375	62.5312
-0.638599	1.239375	36.6633
-0.238599	1.239375	13.6694
0.161401	1.239375	4.296094
0.561401	1.239375	2.891072
0.961401	1.239375	4.258993
1.361401	1.239375	4.028014
1.761401	1.239375	4.936331
2.161401	1.239375	2.946846
-1.638599	1.439375	3.689956
-1.238599	1.439375	20.5377
-0.838599	1.439375	21.7729
-0.438599	1.439375	6.310208
-0.038599	1.439375	4.832999
0.361401	1.439375	4.759826
0.761401	1.439375	4.524408
1.161401	1.439375	3.192758
1.561401	1.439375	3.910326
1.961401	1.439375	3.517983
-1.838599	1.639375	1.890012
-1.438599	1.639375	2.405735
-1.038599	1.639375	8.283228
-0.638599	1.639375	4.503693
-0.238599	1.639375	2.203336
0.161401	1.639375	0.551889
0.561401	1.639375	1.422390
0.961401	1.639375	4.184184
1.361401	1.639375	7.059642
1.761401	1.639375	6.617525
2.161401	1.639375	3.551792
-1.638599	1.839375	3.122352
-1.238599	1.839375	1.634702
-0.838599	1.839375	0.833151
-0.438599	1.839375	1.305759
-0.038599	1.839375	1.548262
0.361401	1.839375	1.288913
0.761401	1.839375	7.834391
1.161401	1.839375	14.6156
1.561401	1.839375	10.9693
1.961401	1.839375	6.235380
-1.838599	2.039375	1.661688
-1.438599	2.039375	12.7896
-1.038599	2.039375	2.849475
-0.638599	2.039375	2.045573
-0.238599	2.039375	2.039701
0.161401	2.039375	-1.523637
0.561401	2.039375	6.611396
0.961401	2.039375	28.7241
1.361401	2.039375	38.515
1.761401	2.039375	14.3505
2.161401	2.039375	11.1142
-1.638599	2.239375	1.138330
-1.238599	2.239375	1.540863
-0.838599	2.239375	1.214815
-0.438599	2.239375	1.313256
-0.038599	2.239375	1.242316
0.361401	2.239375	4.437019
0.761401	2.239375	22.759
1.161401	2.239375	91.2131
1.561401	2.239375	54.6853
1.961401	2.239375	20.965
2.161401	2.239375	18.3014