File: data/derived_data/raman/20171207_GrNH2_from_20171130/20171207_GrNH2_map_1/2D pos.txt
#XList		#YList		#IList
-1.838599	-0.760625	2700.56
-1.438599	-0.760625	2703.03
-1.038599	-0.760625	2703.51
-0.638599	-0.760625	2705.77
-0.238599	-0.760625	2708.95
0.161401	-0.760625	2705.55
0.561401	-0.760625	2701.46
0.961401	-0.760625	2697.44
1.361401	-0.760625	2695.02
1.761401	-0.760625	2698.6
2.161401	-0.760625	2703.14
-1.638599	-0.560625	2701.59
-1.238599	-0.560625	2703.47
-0.838599	-0.560625	2704.57
-0.438599	-0.560625	2704.15
-0.038599	-0.560625	2708.38
0.361401	-0.560625	2705.67
0.761401	-0.560625	2703.51
1.161401	-0.560625	2693.39
1.561401	-0.560625	2692.74
1.961401	-0.560625	2698.23
-1.838599	-0.360625	2698.73
-1.438599	-0.360625	2701.52
-1.038599	-0.360625	2703.42
-0.638599	-0.360625	2703.33
-0.238599	-0.360625	2705.76
0.161401	-0.360625	2708.91
0.561401	-0.360625	2705.2
0.961401	-0.360625	2702.41
1.361401	-0.360625	2693.3
1.761401	-0.360625	2702.44
2.161401	-0.360625	2699.39
-1.638599	-0.160625	2699.1
-1.238599	-0.160625	2702.28
-0.838599	-0.160625	2702.37
-0.438599	-0.160625	2703.07
-0.038599	-0.160625	2706.37
0.361401	-0.160625	2705.58
0.761401	-0.160625	2706.25
1.161401	-0.160625	2702.81
1.561401	-0.160625	2703.38
1.961401	-0.160625	2699.92
-1.838599	0.039375	2700.94
-1.438599	0.039375	2702.28
-1.038599	0.039375	2702.8
-0.638599	0.039375	2703.39
-0.238599	0.039375	2701.62
0.161401	0.039375	2704.71
0.561401	0.039375	2704.88
0.961401	0.039375	2705.09
1.361401	0.039375	2699.71
1.761401	0.039375	2700.07
2.161401	0.039375	2701.44
-1.638599	0.239375	2702.61
-1.238599	0.239375	2704.97
-0.838599	0.239375	2703.5
-0.438599	0.239375	2702.82
-0.038599	0.239375	2703
0.361401	0.239375	2703.16
0.761401	0.239375	2703.41
1.161401	0.239375	2700.17
1.561401	0.239375	2697.89
1.961401	0.239375	2700.31
-1.838599	0.439375	2703.9
-1.438599	0.439375	2704.49
-1.038599	0.439375	2704.21
-0.638599	0.439375	2702.33
-0.238599	0.439375	2702.86
0.161401	0.439375	2699.11
0.561401	0.439375	2700.86
0.961401	0.439375	2700.4
1.361401	0.439375	2699.05
1.761401	0.439375	2699.36
2.161401	0.439375	2698.11
-1.638599	0.639375	2704.63
-1.238599	0.639375	2705.73
-0.838599	0.639375	2704.59
-0.438599	0.639375	2701.44
-0.038599	0.639375	2698.42
0.361401	0.639375	2695.55
0.761401	0.639375	2702.36
1.161401	0.639375	2698.31
1.561401	0.639375	2700.58
1.961401	0.639375	2701.51
-1.838599	0.839375	2696.86
-1.438599	0.839375	2704.15
-1.038599	0.839375	2703.25
-0.638599	0.839375	2700.07
-0.238599	0.839375	2700.46
0.161401	0.839375	2697.66
0.561401	0.839375	2698.31
0.961401	0.839375	2698.49
1.361401	0.839375	2697.98
1.761401	0.839375	2701.88
2.161401	0.839375	2699.44
-1.638599	1.039375	2705.18
-1.238599	1.039375	2697.6
-0.838599	1.039375	2699.81
-0.438599	1.039375	2699.56
-0.038599	1.039375	2702.64
0.361401	1.039375	2711.47
0.761401	1.039375	2709.84
1.161401	1.039375	2710.32
1.561401	1.039375	2689.83
1.961401	1.039375	2690.59
-1.838599	1.239375	2713.23
-1.438599	1.239375	2702.38
-1.038599	1.239375	2696.96
-0.638599	1.239375	2697.53
-0.238599	1.239375	2704.25
0.161401	1.239375	2696.16
0.561401	1.239375	2686.89
0.961401	1.239375	2705.8
1.361401	1.239375	2699.32
1.761401	1.239375	2693.87
2.161401	1.239375	2669.27
-1.638599	1.439375	2698.87
-1.238599	1.439375	2697.67
-0.838599	1.439375	2698.64
-0.438599	1.439375	2695.67
-0.038599	1.439375	2578.5
0.361401	1.439375	2689.12
0.761401	1.439375	2704.16
1.161401	1.439375	2723.14
1.561401	1.439375	2689.72
1.961401	1.439375	2701.23
-1.838599	1.639375	2694.66
-1.438599	1.639375	2676.13
-1.038599	1.639375	2687.7
-0.638599	1.639375	2703.12
-0.238599	1.639375	2640.75
0.161401	1.639375	2227.92
0.561401	1.639375	2731.18
0.961401	1.639375	2690.36
1.361401	1.639375	2708.7
1.761401	1.639375	2698.07
2.161401	1.639375	2723.4
-1.638599	1.839375	2705.24
-1.238599	1.839375	2691.93
-0.838599	1.839375	2647.06
-0.438599	1.839375	2680.98
-0.038599	1.839375	2701.06
0.361401	1.839375	2687.1
0.761401	1.839375	2684.96
1.161401	1.839375	2697.89
1.561401	1.839375	2706.4
1.961401	1.839375	2707.15
-1.838599	2.039375	2648.93
-1.438599	2.039375	2727.77
-1.038599	2.039375	2702.16
-0.638599	2.039375	2691.84
-0.238599	2.039375	2706.45
0.161401	2.039375	3339.62
0.561401	2.039375	2698.64
0.961401	2.039375	2703.57
1.361401	2.039375	2698.63
1.761401	2.039375	2705.95
2.161401	2.039375	2712.72
-1.638599	2.239375	2385.93
-1.238599	2.239375	2637.05
-0.838599	2.239375	2745.88
-0.438599	2.239375	2727.3
-0.038599	2.239375	2704.05
0.361401	2.239375	2694.11
0.761401	2.239375	2705.62
1.161401	2.239375	2697.07
1.561401	2.239375	2702.14
1.961401	2.239375	2715.77
2.161401	2.239375	2705.24