File: data/derived_data/raman/20171207_GrNH2_from_20171130/20171207_GrNH2_map_1/D FWHM.txt
#XList		#YList		#IList
-1.838599	-0.760625	63.3385
-1.438599	-0.760625	60.1226
-1.038599	-0.760625	59.6746
-0.638599	-0.760625	61.8449
-0.238599	-0.760625	64.5133
0.161401	-0.760625	65.2055
0.561401	-0.760625	69.1551
0.961401	-0.760625	64.6334
1.361401	-0.760625	61.5935
1.761401	-0.760625	63.2864
2.161401	-0.760625	69.7973
-1.638599	-0.560625	59.364
-1.238599	-0.560625	58.0545
-0.838599	-0.560625	60.1592
-0.438599	-0.560625	61.1051
-0.038599	-0.560625	63.0941
0.361401	-0.560625	64.6163
0.761401	-0.560625	63.1122
1.161401	-0.560625	65.2456
1.561401	-0.560625	63.2294
1.961401	-0.560625	62.9686
-1.838599	-0.360625	58.4848
-1.438599	-0.360625	54.7329
-1.038599	-0.360625	58.8239
-0.638599	-0.360625	59.2338
-0.238599	-0.360625	58.385
0.161401	-0.360625	61.0517
0.561401	-0.360625	63.3677
0.961401	-0.360625	64.5565
1.361401	-0.360625	65.1533
1.761401	-0.360625	65.3675
2.161401	-0.360625	59.9523
-1.638599	-0.160625	56.7518
-1.238599	-0.160625	57.4132
-0.838599	-0.160625	62.018
-0.438599	-0.160625	57.721
-0.038599	-0.160625	58.378
0.361401	-0.160625	60.4181
0.761401	-0.160625	66.1104
1.161401	-0.160625	67.7635
1.561401	-0.160625	67.9192
1.961401	-0.160625	73.6982
-1.838599	0.039375	58.099
-1.438599	0.039375	56.2846
-1.038599	0.039375	59.0565
-0.638599	0.039375	61.498
-0.238599	0.039375	60.4786
0.161401	0.039375	57.5088
0.561401	0.039375	63.0933
0.961401	0.039375	65.735
1.361401	0.039375	69.3241
1.761401	0.039375	62.6277
2.161401	0.039375	67.2223
-1.638599	0.239375	57.1808
-1.238599	0.239375	57.9998
-0.838599	0.239375	58.8277
-0.438599	0.239375	60.4741
-0.038599	0.239375	60.3724
0.361401	0.239375	62.6981
0.761401	0.239375	66.2484
1.161401	0.239375	67.6426
1.561401	0.239375	62.9813
1.961401	0.239375	63.9716
-1.838599	0.439375	54.1986
-1.438599	0.439375	56.3962
-1.038599	0.439375	58.0362
-0.638599	0.439375	59.3899
-0.238599	0.439375	61.7944
0.161401	0.439375	68.079
0.561401	0.439375	65.81
0.961401	0.439375	65.4447
1.361401	0.439375	67.5209
1.761401	0.439375	62.4568
2.161401	0.439375	63.9093
-1.638599	0.639375	57.1459
-1.238599	0.639375	58.3715
-0.838599	0.639375	59.2836
-0.438599	0.639375	60.304
-0.038599	0.639375	63.1578
0.361401	0.639375	68.6
0.761401	0.639375	63.5721
1.161401	0.639375	67.2336
1.561401	0.639375	66.2925
1.961401	0.639375	64.8201
-1.838599	0.839375	56.9479
-1.438599	0.839375	57.702
-1.038599	0.839375	58.8576
-0.638599	0.839375	58.5676
-0.238599	0.839375	60.6115
0.161401	0.839375	61.1253
0.561401	0.839375	70.4917
0.961401	0.839375	63.2987
1.361401	0.839375	67.3449
1.761401	0.839375	64.847
2.161401	0.839375	63.1489
-1.638599	1.039375	52.3949
-1.238599	1.039375	55.7638
-0.838599	1.039375	57.9224
-0.438599	1.039375	57.2291
-0.038599	1.039375	61.0714
0.361401	1.039375	58.9281
0.761401	1.039375	58.6646
1.161401	1.039375	60.3959
1.561401	1.039375	66.6845
1.961401	1.039375	59.0286
-1.838599	1.239375	63.6631
-1.438599	1.239375	53.3277
-1.038599	1.239375	54.1327
-0.638599	1.239375	56.6636
-0.238599	1.239375	60.6385
0.161401	1.239375	60.3386
0.561401	1.239375	63.8445
0.961401	1.239375	58.386
1.361401	1.239375	59.929
1.761401	1.239375	58.28
2.161401	1.239375	73.4063
-1.638599	1.439375	65.6186
-1.238599	1.439375	55.608
-0.838599	1.439375	46.0357
-0.438599	1.439375	52.7732
-0.038599	1.439375	53.2551
0.361401	1.439375	76.0434
0.761401	1.439375	60.355
1.161401	1.439375	82.2474
1.561401	1.439375	57.4213
1.961401	1.439375	51.8932
-1.838599	1.639375	38.5139
-1.438599	1.639375	66.9319
-1.038599	1.639375	52.6776
-0.638599	1.639375	65.9943
-0.238599	1.639375	89.7745
0.161401	1.639375	63.5526
0.561401	1.639375	67.2837
0.961401	1.639375	74.1205
1.361401	1.639375	93.7952
1.761401	1.639375	53.5124
2.161401	1.639375	85.8367
-1.638599	1.839375	133.924
-1.238599	1.839375	51.5146
-0.838599	1.839375	79.6703
-0.438599	1.839375	100.794
-0.038599	1.839375	74.105
0.361401	1.839375	70.4176
0.761401	1.839375	76.7504
1.161401	1.839375	75.9935
1.561401	1.839375	77.4971
1.961401	1.839375	88.697
-1.838599	2.039375	2.152935
-1.438599	2.039375	1561.8
-1.038599	2.039375	398.655
-0.638599	2.039375	94.6392
-0.238599	2.039375	34.8022
0.161401	2.039375	74.0524
0.561401	2.039375	80.7501
0.961401	2.039375	76.189
1.361401	2.039375	71.8677
1.761401	2.039375	74.4688
2.161401	2.039375	57.6283
-1.638599	2.239375	94.296
-1.238599	2.239375	2.022389
-0.838599	2.239375	2595.04
-0.438599	2.239375	104.8
-0.038599	2.239375	61.1098
0.361401	2.239375	65.746
0.761401	2.239375	75.1461
1.161401	2.239375	66.6191
1.561401	2.239375	69.2662
1.961401	2.239375	68.3733
2.161401	2.239375	66.5743