File: data/derived_data/raman/20171207_GrNH2_from_20171130/20171207_GrNH2_map_1/D int.txt
#XList		#YList		#IList
-1.838599	-0.760625	310.665
-1.438599	-0.760625	403.037
-1.038599	-0.760625	440.887
-0.638599	-0.760625	406.713
-0.238599	-0.760625	348.609
0.161401	-0.760625	403.993
0.561401	-0.760625	631.574
0.961401	-0.760625	461.827
1.361401	-0.760625	482.652
1.761401	-0.760625	195.254
2.161401	-0.760625	198.511
-1.638599	-0.560625	454.232
-1.238599	-0.560625	439.469
-0.838599	-0.560625	425.266
-0.438599	-0.560625	404.732
-0.038599	-0.560625	309.909
0.361401	-0.560625	466.512
0.761401	-0.560625	484.865
1.161401	-0.560625	474.983
1.561401	-0.560625	370.637
1.961401	-0.560625	114.46
-1.838599	-0.360625	409.122
-1.438599	-0.360625	474.94
-1.038599	-0.360625	438.348
-0.638599	-0.360625	414.379
-0.238599	-0.360625	351.71
0.161401	-0.360625	354.148
0.561401	-0.360625	459.203
0.961401	-0.360625	434.863
1.361401	-0.360625	376.496
1.761401	-0.360625	117.482
2.161401	-0.360625	101.515
-1.638599	-0.160625	510.819
-1.238599	-0.160625	438.026
-0.838599	-0.160625	410.197
-0.438599	-0.160625	412.354
-0.038599	-0.160625	347.156
0.361401	-0.160625	439.514
0.761401	-0.160625	372.817
1.161401	-0.160625	378.519
1.561401	-0.160625	161.178
1.961401	-0.160625	94.8727
-1.838599	0.039375	203.027
-1.438599	0.039375	406.605
-1.038599	0.039375	416.992
-0.638599	0.039375	403.662
-0.238599	0.039375	409.315
0.161401	0.039375	378.605
0.561401	0.039375	403.953
0.961401	0.039375	405.538
1.361401	0.039375	264.7
1.761401	0.039375	321.916
2.161401	0.039375	181.065
-1.638599	0.239375	311.271
-1.238599	0.239375	366.217
-0.838599	0.239375	393.736
-0.438599	0.239375	407.15
-0.038599	0.239375	401.271
0.361401	0.239375	412.401
0.761401	0.239375	382.625
1.161401	0.239375	399.026
1.561401	0.239375	427.874
1.961401	0.239375	557.422
-1.838599	0.439375	88.3046
-1.438599	0.439375	343.679
-1.038599	0.439375	385.944
-0.638599	0.439375	381.224
-0.238599	0.439375	404.125
0.161401	0.439375	415.637
0.561401	0.439375	391.767
0.961401	0.439375	414.512
1.361401	0.439375	308.358
1.761401	0.439375	520.682
2.161401	0.439375	530.561
-1.638599	0.639375	202.633
-1.238599	0.639375	357.631
-0.838599	0.639375	376.644
-0.438599	0.639375	393.175
-0.038599	0.639375	410.23
0.361401	0.639375	309.828
0.761401	0.639375	276.657
1.161401	0.639375	346.813
1.561401	0.639375	142.426
1.961401	0.639375	295.464
-1.838599	0.839375	21.787
-1.438599	0.839375	252.2
-1.038599	0.839375	373.535
-0.638599	0.839375	380.386
-0.238599	0.839375	336.444
0.161401	0.839375	225.686
0.561401	0.839375	105.17
0.961401	0.839375	140.416
1.361401	0.839375	150.717
1.761401	0.839375	53.3863
2.161401	0.839375	124.132
-1.638599	1.039375	49.9801
-1.238599	1.039375	298.731
-0.838599	1.039375	357.465
-0.438599	1.039375	269.328
-0.038599	1.039375	124.1
0.361401	1.039375	46.5363
0.761401	1.039375	28.386
1.161401	1.039375	62.2279
1.561401	1.039375	28.5482
1.961401	1.039375	27.6144
-1.838599	1.239375	6.419864
-1.438599	1.239375	83.0589
-1.038599	1.239375	253.535
-0.638599	1.239375	177.292
-0.238599	1.239375	74.4963
0.161401	1.239375	19.407
0.561401	1.239375	13.5414
0.961401	1.239375	17.9825
1.361401	1.239375	19.0386
1.761401	1.239375	16.4675
2.161401	1.239375	14.3758
-1.638599	1.439375	9.670557
-1.238599	1.439375	78.9799
-0.838599	1.439375	90.2246
-0.438599	1.439375	38.2303
-0.038599	1.439375	15.3088
0.361401	1.439375	9.209164
0.761401	1.439375	11.807
1.161401	1.439375	17.1705
1.561401	1.439375	15.15
1.961401	1.439375	10.2869
-1.838599	1.639375	2.754668
-1.438599	1.639375	8.223801
-1.038599	1.639375	22.7781
-0.638599	1.639375	15.9085
-0.238599	1.639375	9.475890
0.161401	1.639375	4.439504
0.561401	1.639375	11.9045
0.961401	1.639375	30.0051
1.361401	1.639375	28.846
1.761401	1.639375	16.8237
2.161401	1.639375	7.642321
-1.638599	1.839375	0.737709
-1.238599	1.839375	5.922794
-0.838599	1.839375	5.967238
-0.438599	1.839375	4.951205
-0.038599	1.839375	4.314106
0.361401	1.839375	6.950298
0.761401	1.839375	32.6515
1.161401	1.839375	75.8293
1.561401	1.839375	43.2155
1.961401	1.839375	16.8792
-1.838599	2.039375	4.121476
-1.438599	2.039375	1.189037
-1.038599	2.039375	1.371294
-0.638599	2.039375	3.225796
-0.238599	2.039375	3.362829
0.161401	2.039375	6.654791
0.561401	2.039375	22.1222
0.961401	2.039375	136.966
1.361401	2.039375	207.147
1.761401	2.039375	50.0465
2.161401	2.039375	19.3155
-1.638599	2.239375	4.910320
-1.238599	2.239375	8.733432
-0.838599	2.239375	0.873561
-0.438599	2.239375	2.997218
-0.038599	2.239375	6.535269
0.361401	2.239375	15.0931
0.761401	2.239375	103.504
1.161401	2.239375	458.089
1.561401	2.239375	279.323
1.961401	2.239375	49.9691
2.161401	2.239375	36.0943