File: data/derived_data/raman/20171207_GrNH2_from_20171130/20171207_GrNH2_map_1/D pos.txt
#XList		#YList		#IList
-1.838599	-0.760625	1351.64
-1.438599	-0.760625	1352.56
-1.038599	-0.760625	1352.77
-0.638599	-0.760625	1352
-0.238599	-0.760625	1352.35
0.161401	-0.760625	1352.18
0.561401	-0.760625	1351.13
0.961401	-0.760625	1352.18
1.361401	-0.760625	1350.78
1.761401	-0.760625	1350.17
2.161401	-0.760625	1352.09
-1.638599	-0.560625	1351.73
-1.238599	-0.560625	1352.22
-0.838599	-0.560625	1352.77
-0.438599	-0.560625	1352.33
-0.038599	-0.560625	1352.64
0.361401	-0.560625	1352.1
0.761401	-0.560625	1352
1.161401	-0.560625	1351.39
1.561401	-0.560625	1350.96
1.961401	-0.560625	1352.34
-1.838599	-0.360625	1351.07
-1.438599	-0.360625	1352.36
-1.038599	-0.360625	1352.43
-0.638599	-0.360625	1353
-0.238599	-0.360625	1352.84
0.161401	-0.360625	1352.47
0.561401	-0.360625	1351.53
0.961401	-0.360625	1351.58
1.361401	-0.360625	1351.17
1.761401	-0.360625	1350.83
2.161401	-0.360625	1352.57
-1.638599	-0.160625	1351.49
-1.238599	-0.160625	1352.56
-0.838599	-0.160625	1352.39
-0.438599	-0.160625	1352.66
-0.038599	-0.160625	1353.1
0.361401	-0.160625	1351.85
0.761401	-0.160625	1351.48
1.161401	-0.160625	1351.68
1.561401	-0.160625	1352.15
1.961401	-0.160625	1353.98
-1.838599	0.039375	1352.11
-1.438599	0.039375	1351.67
-1.038599	0.039375	1352.95
-0.638599	0.039375	1352.64
-0.238599	0.039375	1352.05
0.161401	0.039375	1352.36
0.561401	0.039375	1351.62
0.961401	0.039375	1352.05
1.361401	0.039375	1351.19
1.761401	0.039375	1352.38
2.161401	0.039375	1352.45
-1.638599	0.239375	1352.3
-1.238599	0.239375	1352.64
-0.838599	0.239375	1351.89
-0.438599	0.239375	1352.64
-0.038599	0.239375	1351.87
0.361401	0.239375	1351.63
0.761401	0.239375	1351.62
1.161401	0.239375	1351.49
1.561401	0.239375	1352.09
1.961401	0.239375	1352.07
-1.838599	0.439375	1353.96
-1.438599	0.439375	1352.74
-1.038599	0.439375	1353.03
-0.638599	0.439375	1352.03
-0.238599	0.439375	1351.84
0.161401	0.439375	1351.86
0.561401	0.439375	1351.71
0.961401	0.439375	1351.67
1.361401	0.439375	1351.04
1.761401	0.439375	1352.04
2.161401	0.439375	1351.96
-1.638599	0.639375	1352.93
-1.238599	0.639375	1352.93
-0.838599	0.639375	1352.45
-0.438599	0.639375	1352.44
-0.038599	0.639375	1351.84
0.361401	0.639375	1351.07
0.761401	0.639375	1351.95
1.161401	0.639375	1351.27
1.561401	0.639375	1353.46
1.961401	0.639375	1353.13
-1.838599	0.839375	1354.98
-1.438599	0.839375	1352.48
-1.038599	0.839375	1352.63
-0.638599	0.839375	1352.38
-0.238599	0.839375	1351.75
0.161401	0.839375	1351.47
0.561401	0.839375	1351.28
0.961401	0.839375	1352.38
1.361401	0.839375	1350.67
1.761401	0.839375	1353.05
2.161401	0.839375	1352.02
-1.638599	1.039375	1353.59
-1.238599	1.039375	1351.4
-0.838599	1.039375	1352.37
-0.438599	1.039375	1352.27
-0.038599	1.039375	1352.41
0.361401	1.039375	1350.66
0.761401	1.039375	1353.13
1.161401	1.039375	1351.6
1.561401	1.039375	1353.1
1.961401	1.039375	1352.78
-1.838599	1.239375	1350.98
-1.438599	1.239375	1352.58
-1.038599	1.239375	1352.62
-0.638599	1.239375	1351.11
-0.238599	1.239375	1350.71
0.161401	1.239375	1351.88
0.561401	1.239375	1354.18
0.961401	1.239375	1353.34
1.361401	1.239375	1353.41
1.761401	1.239375	1352.56
2.161401	1.239375	1352.58
-1.638599	1.439375	1355.88
-1.238599	1.439375	1352.54
-0.838599	1.439375	1352.19
-0.438599	1.439375	1351.84
-0.038599	1.439375	1347.89
0.361401	1.439375	1349.55
0.761401	1.439375	1350.57
1.161401	1.439375	1358.62
1.561401	1.439375	1351.24
1.961401	1.439375	1352.25
-1.838599	1.639375	1367.66
-1.438599	1.639375	1344.59
-1.038599	1.639375	1352.14
-0.638599	1.639375	1353.18
-0.238599	1.639375	1350.29
0.161401	1.639375	1350.83
0.561401	1.639375	1354.25
0.961401	1.639375	1356.2
1.361401	1.639375	1351.31
1.761401	1.639375	1357.03
2.161401	1.639375	1359.05
-1.638599	1.839375	1446.68
-1.238599	1.839375	1356.86
-0.838599	1.839375	1352.38
-0.438599	1.839375	1349.29
-0.038599	1.839375	1343.5
0.361401	1.839375	1372.89
0.761401	1.839375	1354.15
1.161401	1.839375	1355.05
1.561401	1.839375	1353.8
1.961401	1.839375	1355.84
-1.838599	2.039375	1347.41
-1.438599	2.039375	942.882
-1.038599	2.039375	1506.24
-0.638599	2.039375	1334.7
-0.238599	2.039375	1337.19
0.161401	2.039375	1361.51
0.561401	2.039375	1359.19
0.961401	2.039375	1353.73
1.361401	2.039375	1352.39
1.761401	2.039375	1352.81
2.161401	2.039375	1353.78
-1.638599	2.239375	919.655
-1.238599	2.239375	1308.53
-0.838599	2.239375	2870.63
-0.438599	2.239375	1369.7
-0.038599	2.239375	1363.09
0.361401	2.239375	1355.1
0.761401	2.239375	1354.14
1.161401	2.239375	1351.93
1.561401	2.239375	1351.36
1.961401	2.239375	1353.41
2.161401	2.239375	1355.46