File: data/derived_data/raman/20171207_GrNH2_from_20171130/20171207_GrNH2_map_1/Dp FWHM.txt
#XList		#YList		#IList
-1.838599	-0.760625	17.3505
-1.438599	-0.760625	19.5805
-1.038599	-0.760625	18.4398
-0.638599	-0.760625	19.738
-0.238599	-0.760625	23.8215
0.161401	-0.760625	23.9925
0.561401	-0.760625	18.3416
0.961401	-0.760625	17.1039
1.361401	-0.760625	15.9358
1.761401	-0.760625	17.3032
2.161401	-0.760625	21.2671
-1.638599	-0.560625	19.4667
-1.238599	-0.560625	18.9121
-0.838599	-0.560625	18.9217
-0.438599	-0.560625	17.7993
-0.038599	-0.560625	26.8178
0.361401	-0.560625	23.8295
0.761401	-0.560625	19.0328
1.161401	-0.560625	16.3192
1.561401	-0.560625	17.2983
1.961401	-0.560625	20.6256
-1.838599	-0.360625	18.4438
-1.438599	-0.360625	18.4153
-1.038599	-0.360625	18.6187
-0.638599	-0.360625	20.0985
-0.238599	-0.360625	23.1723
0.161401	-0.360625	24.0616
0.561401	-0.360625	25.3252
0.961401	-0.360625	22.024
1.361401	-0.360625	18.3447
1.761401	-0.360625	16.4265
2.161401	-0.360625	14.1776
-1.638599	-0.160625	20.4782
-1.238599	-0.160625	16.9644
-0.838599	-0.160625	20.2715
-0.438599	-0.160625	16.8987
-0.038599	-0.160625	26.8998
0.361401	-0.160625	24.7804
0.761401	-0.160625	23.8574
1.161401	-0.160625	19.6544
1.561401	-0.160625	15.0859
1.961401	-0.160625	15.5118
-1.838599	0.039375	17.9228
-1.438599	0.039375	16.8093
-1.038599	0.039375	18.2527
-0.638599	0.039375	17.8172
-0.238599	0.039375	18.5065
0.161401	0.039375	20.4336
0.561401	0.039375	23.2448
0.961401	0.039375	20.1587
1.361401	0.039375	15.2009
1.761401	0.039375	15.7371
2.161401	0.039375	16.9504
-1.638599	0.239375	21.3037
-1.238599	0.239375	18.0702
-0.838599	0.239375	19.6133
-0.438599	0.239375	17.5084
-0.038599	0.239375	21.0058
0.361401	0.239375	19.8123
0.761401	0.239375	21.098
1.161401	0.239375	20.6384
1.561401	0.239375	15.1032
1.961401	0.239375	15.7589
-1.838599	0.439375	18.2802
-1.438599	0.439375	19.6017
-1.038599	0.439375	21.001
-0.638599	0.439375	20.2074
-0.238599	0.439375	19.7891
0.161401	0.439375	18.8233
0.561401	0.439375	17.289
0.961401	0.439375	18.4676
1.361401	0.439375	17.2225
1.761401	0.439375	15.8717
2.161401	0.439375	14.7531
-1.638599	0.639375	20.0368
-1.238599	0.639375	21.195
-0.838599	0.639375	19.4595
-0.438599	0.639375	16.9718
-0.038599	0.639375	18.7617
0.361401	0.639375	16.9721
0.761401	0.639375	17.0944
1.161401	0.639375	20.0985
1.561401	0.639375	18.5693
1.961401	0.639375	16.904
-1.838599	0.839375	12.1118
-1.438599	0.839375	17.9299
-1.038599	0.839375	19.0745
-0.638599	0.839375	15.8018
-0.238599	0.839375	16.1601
0.161401	0.839375	16.5094
0.561401	0.839375	12.8443
0.961401	0.839375	17.7569
1.361401	0.839375	17.8847
1.761401	0.839375	17.0721
2.161401	0.839375	17.5655
-1.638599	1.039375	22.7781
-1.238599	1.039375	16.9531
-0.838599	1.039375	18.1686
-0.438599	1.039375	16.4464
-0.038599	1.039375	18.9209
0.361401	1.039375	18.5828
0.761401	1.039375	16.3201
1.161401	1.039375	9.845082
1.561401	1.039375	9.787048
1.961401	1.039375	21.5782
-1.838599	1.239375	40.1155
-1.438599	1.239375	20.4471
-1.038599	1.239375	15.234
-0.638599	1.239375	17.6325
-0.238599	1.239375	11.7578
0.161401	1.239375	18.7385
0.561401	1.239375	2595.04
0.961401	1.239375	8.861623
1.361401	1.239375	51.3671
1.761401	1.239375	1.244480
2.161401	1.239375	2.720996
-1.638599	1.439375	8.439833
-1.238599	1.439375	17.5094
-0.838599	1.439375	19.0655
-0.438599	1.439375	10.3496
-0.038599	1.439375	2595.04
0.361401	1.439375	8.360801
0.761401	1.439375	2.107187
1.161401	1.439375	21.7107
1.561401	1.439375	6.136401
1.961401	1.439375	480.147
-1.838599	1.639375	0.639804
-1.438599	1.639375	2.276974
-1.038599	1.639375	29.3167
-0.638599	1.639375	14.477
-0.238599	1.639375	2.292265
0.161401	1.639375	0.639804
0.561401	1.639375	1.414024
0.961401	1.639375	1.423054
1.361401	1.639375	16.4788
1.761401	1.639375	0.639804
2.161401	1.639375	1.069628
-1.638599	1.839375	4.636390
-1.238599	1.839375	3.137533
-0.838599	1.839375	11.9471
-0.438599	1.839375	9.128913
-0.038599	1.839375	0.639804
0.361401	1.839375	0.670634
0.761401	1.839375	0.857934
1.161401	1.839375	22.738
1.561401	1.839375	18.6652
1.961401	1.839375	9.455568
-1.838599	2.039375	0.639804
-1.438599	2.039375	6.904206
-1.038599	2.039375	0.752465
-0.638599	2.039375	1.388291
-0.238599	2.039375	21.4036
0.161401	2.039375	11.2932
0.561401	2.039375	3.579566
0.961401	2.039375	20.025
1.361401	2.039375	15.648
1.761401	2.039375	12.91
2.161401	2.039375	17.4173
-1.638599	2.239375	252.84
-1.238599	2.239375	0.639804
-0.838599	2.239375	11.5156
-0.438599	2.239375	4.327365
-0.038599	2.239375	0.639804
0.361401	2.239375	5.570399
0.761401	2.239375	13.7018
1.161401	2.239375	18.1282
1.561401	2.239375	19.0257
1.961401	2.239375	16.9598
2.161401	2.239375	6.916061