File: data/derived_data/raman/20171207_GrNH2_from_20171130/20171207_GrNH2_map_1/Dp int.txt
#XList		#YList		#IList
-1.838599	-0.760625	110.573
-1.438599	-0.760625	163.697
-1.038599	-0.760625	162.23
-0.638599	-0.760625	169.049
-0.238599	-0.760625	152.023
0.161401	-0.760625	184.241
0.561401	-0.760625	262.34
0.961401	-0.760625	171.087
1.361401	-0.760625	161.063
1.761401	-0.760625	67.7728
2.161401	-0.760625	70.2007
-1.638599	-0.560625	173.677
-1.238599	-0.560625	174.984
-0.838599	-0.560625	166.782
-0.438599	-0.560625	161.033
-0.038599	-0.560625	146.607
0.361401	-0.560625	214.839
0.761401	-0.560625	193.129
1.161401	-0.560625	172.434
1.561401	-0.560625	122.61
1.961401	-0.560625	48.2469
-1.838599	-0.360625	145.996
-1.438599	-0.360625	176.789
-1.038599	-0.360625	169.31
-0.638599	-0.360625	161.926
-0.238599	-0.360625	148.626
0.161401	-0.360625	157.381
0.561401	-0.360625	204.072
0.961401	-0.360625	168.704
1.361401	-0.360625	134.28
1.761401	-0.360625	32.2312
2.161401	-0.360625	36.8608
-1.638599	-0.160625	178.795
-1.238599	-0.160625	155.25
-0.838599	-0.160625	165.755
-0.438599	-0.160625	152.125
-0.038599	-0.160625	145.794
0.361401	-0.160625	187.631
0.761401	-0.160625	169.053
1.161401	-0.160625	148.918
1.561401	-0.160625	62.477
1.961401	-0.160625	24.9643
-1.838599	0.039375	75.0071
-1.438599	0.039375	163.318
-1.038599	0.039375	149.5
-0.638599	0.039375	149.481
-0.238599	0.039375	161.523
0.161401	0.039375	166.84
0.561401	0.039375	160.299
0.961401	0.039375	175.673
1.361401	0.039375	90.3882
1.761401	0.039375	97.9018
2.161401	0.039375	58.4888
-1.638599	0.239375	114.356
-1.238599	0.239375	139.034
-0.838599	0.239375	158.558
-0.438599	0.239375	155.028
-0.038599	0.239375	165.106
0.361401	0.239375	164.057
0.761401	0.239375	163.689
1.161401	0.239375	163.274
1.561401	0.239375	144.625
1.961401	0.239375	190.974
-1.838599	0.439375	35.5098
-1.438599	0.439375	123.18
-1.038599	0.439375	144.473
-0.638599	0.439375	152.953
-0.238599	0.439375	153.609
0.161401	0.439375	164.89
0.561401	0.439375	144.993
0.961401	0.439375	165.653
1.361401	0.439375	125.784
1.761401	0.439375	172.964
2.161401	0.439375	163.491
-1.638599	0.639375	79.7428
-1.238599	0.639375	123.256
-0.838599	0.639375	141.537
-0.438599	0.639375	140.404
-0.038599	0.639375	163.739
0.361401	0.639375	123.811
0.761401	0.639375	108.822
1.161401	0.639375	130.416
1.561401	0.639375	58.3195
1.961401	0.639375	97.4305
-1.838599	0.839375	13.6621
-1.438599	0.839375	90.5133
-1.038599	0.839375	133.487
-0.638599	0.839375	145.53
-0.238599	0.839375	118.744
0.161401	0.839375	89.5748
0.561401	0.839375	37.0666
0.961401	0.839375	52.1433
1.361401	0.839375	53.2787
1.761401	0.839375	15.2507
2.161401	0.839375	41.1608
-1.638599	1.039375	18.6804
-1.238599	1.039375	113.587
-0.838599	1.039375	115.704
-0.438599	1.039375	92.0282
-0.038599	1.039375	46.284
0.361401	1.039375	20.244
0.761401	1.039375	14.9427
1.161401	1.039375	17.5024
1.561401	1.039375	7.834059
1.961401	1.039375	6.527115
-1.838599	1.239375	2.943897
-1.438599	1.239375	29.9239
-1.038599	1.239375	84.6086
-0.638599	1.239375	59.7471
-0.238599	1.239375	25.4404
0.161401	1.239375	7.992402
0.561401	1.239375	0.654020
0.961401	1.239375	9.541134
1.361401	1.239375	8.817480
1.761401	1.239375	36.1752
2.161401	1.239375	7.639462
-1.638599	1.439375	4.016898
-1.238599	1.439375	24.9854
-0.838599	1.439375	32.4361
-0.438599	1.439375	14.3001
-0.038599	1.439375	1.183931
0.361401	1.439375	9.612044
0.761401	1.439375	7.968375
1.161401	1.439375	6.951018
1.561401	1.439375	6.700521
1.961401	1.439375	0.558860
-1.838599	1.639375	-3.389755
-1.438599	1.639375	10.3912
-1.038599	1.639375	11.3036
-0.638599	1.639375	8.455282
-0.238599	1.639375	11.2003
0.161401	1.639375	4.556099
0.561401	1.639375	-3.257304
0.961401	1.639375	-10.9405
1.361401	1.639375	11.8465
1.761401	1.639375	-20.6693
2.161401	1.639375	2.830746
-1.638599	1.839375	5.384411
-1.238599	1.839375	-6.888575
-0.838599	1.839375	5.918362
-0.438599	1.839375	1.879175
-0.038599	1.839375	-2.944954
0.361401	1.839375	-37.8729
0.761401	1.839375	-17.9495
1.161401	1.839375	29.5844
1.561401	1.839375	18.6095
1.961401	1.839375	5.771115
-1.838599	2.039375	-0.177203
-1.438599	2.039375	1.408064
-1.038599	2.039375	10.5655
-0.638599	2.039375	4.419336
-0.238599	2.039375	-1.536359
0.161401	2.039375	4.940231
0.561401	2.039375	9.899825
0.961401	2.039375	42.2407
1.361401	2.039375	69.945
1.761401	2.039375	16.0005
2.161401	2.039375	8.523587
-1.638599	2.239375	1.313524
-1.238599	2.239375	9.038146
-0.838599	2.239375	1.386421
-0.438599	2.239375	-6.858758
-0.038599	2.239375	3.616285
0.361401	2.239375	8.064608
0.761401	2.239375	29.3589
1.161401	2.239375	138.019
1.561401	2.239375	80.865
1.961401	2.239375	19.8954
2.161401	2.239375	12.0464