File: data/derived_data/raman/20171207_GrNH2_from_20171130/20171207_GrNH2_map_1/Dp pos.txt
#XList		#YList		#IList
-1.838599	-0.760625	1622.63
-1.438599	-0.760625	1620.67
-1.038599	-0.760625	1621.76
-0.638599	-0.760625	1620.13
-0.238599	-0.760625	1619.24
0.161401	-0.760625	1619.53
0.561401	-0.760625	1619.91
0.961401	-0.760625	1621.92
1.361401	-0.760625	1622.17
1.761401	-0.760625	1620.97
2.161401	-0.760625	1618.43
-1.638599	-0.560625	1621.67
-1.238599	-0.560625	1621.39
-0.838599	-0.560625	1621.79
-0.438599	-0.560625	1621.66
-0.038599	-0.560625	1618.89
0.361401	-0.560625	1618.51
0.761401	-0.560625	1620.67
1.161401	-0.560625	1622.65
1.561401	-0.560625	1621.56
1.961401	-0.560625	1621.14
-1.838599	-0.360625	1620.97
-1.438599	-0.360625	1621.46
-1.038599	-0.360625	1620.9
-0.638599	-0.360625	1621.28
-0.238599	-0.360625	1620.13
0.161401	-0.360625	1619.39
0.561401	-0.360625	1618.08
0.961401	-0.360625	1619.28
1.361401	-0.360625	1620.31
1.761401	-0.360625	1620.19
2.161401	-0.360625	1622.25
-1.638599	-0.160625	1619.88
-1.238599	-0.160625	1622.3
-0.838599	-0.160625	1621.33
-0.438599	-0.160625	1622.31
-0.038599	-0.160625	1618.6
0.361401	-0.160625	1618.64
0.761401	-0.160625	1619.12
1.161401	-0.160625	1619.79
1.561401	-0.160625	1620.84
1.961401	-0.160625	1618.56
-1.838599	0.039375	1621.7
-1.438599	0.039375	1622.16
-1.038599	0.039375	1621.51
-0.638599	0.039375	1621.04
-0.238599	0.039375	1621.37
0.161401	0.039375	1621.01
0.561401	0.039375	1620.12
0.961401	0.039375	1620.95
1.361401	0.039375	1621.97
1.761401	0.039375	1621.33
2.161401	0.039375	1620.83
-1.638599	0.239375	1620.85
-1.238599	0.239375	1621.3
-0.838599	0.239375	1621.02
-0.438599	0.239375	1621.41
-0.038599	0.239375	1619.51
0.361401	0.239375	1620.33
0.761401	0.239375	1619.89
1.161401	0.239375	1619.93
1.561401	0.239375	1620.07
1.961401	0.239375	1620.07
-1.838599	0.439375	1623.28
-1.438599	0.439375	1621.63
-1.038599	0.439375	1620.81
-0.638599	0.439375	1620.72
-0.238599	0.439375	1621.02
0.161401	0.439375	1621.23
0.561401	0.439375	1621.68
0.961401	0.439375	1619.86
1.361401	0.439375	1621.64
1.761401	0.439375	1619.53
2.161401	0.439375	1621.32
-1.638599	0.639375	1622.17
-1.238599	0.639375	1621.42
-0.838599	0.639375	1621.61
-0.438599	0.639375	1622.38
-0.038599	0.639375	1621.29
0.361401	0.639375	1621.08
0.761401	0.639375	1621.54
1.161401	0.639375	1620.31
1.561401	0.639375	1621.93
1.961401	0.639375	1620.97
-1.838599	0.839375	1626.37
-1.438599	0.839375	1621.6
-1.038599	0.839375	1621.4
-0.638599	0.839375	1623.06
-0.238599	0.839375	1621.61
0.161401	0.839375	1622.18
0.561401	0.839375	1623.58
0.961401	0.839375	1621
1.361401	0.839375	1622.11
1.761401	0.839375	1625.04
2.161401	0.839375	1621.91
-1.638599	1.039375	1617.51
-1.238599	1.039375	1622.27
-0.838599	1.039375	1622.11
-0.438599	1.039375	1622.66
-0.038599	1.039375	1620.77
0.361401	1.039375	1619.61
0.761401	1.039375	1618.51
1.161401	1.039375	1625.85
1.561401	1.039375	1624.52
1.961401	1.039375	1623.18
-1.838599	1.239375	1627.3
-1.438599	1.239375	1620.88
-1.038599	1.239375	1622.09
-0.638599	1.239375	1622.14
-0.238599	1.239375	1624.59
0.161401	1.239375	1620.91
0.561401	1.239375	1727.37
0.961401	1.239375	1625.07
1.361401	1.239375	1608.99
1.761401	1.239375	1622.02
2.161401	1.239375	1631.48
-1.638599	1.439375	1622.99
-1.238599	1.439375	1623.18
-0.838599	1.439375	1622.23
-0.438599	1.439375	1624.43
-0.038599	1.439375	2986.05
0.361401	1.439375	1617.73
0.761401	1.439375	1617.69
1.161401	1.439375	1615.53
1.561401	1.439375	1622.84
1.961401	1.439375	1549.31
-1.838599	1.639375	1629.35
-1.438599	1.639375	1621.34
-1.038599	1.639375	1623.47
-0.638599	1.639375	1620.49
-0.238599	1.639375	1625.4
0.161401	1.639375	1621.26
0.561401	1.639375	1627.12
0.961401	1.639375	1631.32
1.361401	1.639375	1623.8
1.761401	1.639375	1619.58
2.161401	1.639375	1621.73
-1.638599	1.839375	1622.41
-1.238599	1.839375	1601.21
-0.838599	1.839375	1620.82
-0.438599	1.839375	1633.14
-0.038599	1.839375	1624.49
0.361401	1.839375	1603.91
0.761401	1.839375	1638.55
1.161401	1.839375	1617.77
1.561401	1.839375	1614.83
1.961401	1.839375	1618.57
-1.838599	2.039375	26.1874
-1.438599	2.039375	1621.38
-1.038599	2.039375	1618.7
-0.638599	2.039375	1625.1
-0.238599	2.039375	1542.11
0.161401	2.039375	1632.35
0.561401	2.039375	1625.86
0.961401	2.039375	1617.92
1.361401	2.039375	1619.53
1.761401	2.039375	1620.93
2.161401	2.039375	1616.6
-1.638599	2.239375	1428.42
-1.238599	2.239375	1726.58
-0.838599	2.239375	1666.34
-0.438599	2.239375	1622.37
-0.038599	2.239375	1618.59
0.361401	2.239375	1614.21
0.761401	2.239375	1621.29
1.161401	2.239375	1620.23
1.561401	2.239375	1620.3
1.961401	2.239375	1619.18
2.161401	2.239375	1623.99