File: data/derived_data/raman/20171207_GrNH2_from_20171130/20171207_GrNH2_map_1/G FWHM.txt
#XList		#YList		#IList
-1.838599	-0.760625	43.5569
-1.438599	-0.760625	32.8245
-1.038599	-0.760625	36.5819
-0.638599	-0.760625	33.7448
-0.238599	-0.760625	27.2203
0.161401	-0.760625	30.1383
0.561401	-0.760625	40.5732
0.961401	-0.760625	45.0699
1.361401	-0.760625	44.5503
1.761401	-0.760625	48.4439
2.161401	-0.760625	43.6206
-1.638599	-0.560625	36.658
-1.238599	-0.560625	32.9093
-0.838599	-0.560625	35.3544
-0.438599	-0.560625	35.8521
-0.038599	-0.560625	24.3146
0.361401	-0.560625	29.2376
0.761401	-0.560625	36.5955
1.161401	-0.560625	47.0328
1.561401	-0.560625	46.3233
1.961401	-0.560625	39.751
-1.838599	-0.360625	39.2273
-1.438599	-0.360625	34.0497
-1.038599	-0.360625	35.1297
-0.638599	-0.360625	35.574
-0.238599	-0.360625	28.701
0.161401	-0.360625	25.7032
0.561401	-0.360625	28.5258
0.961401	-0.360625	36.1891
1.361401	-0.360625	47.039
1.761401	-0.360625	50.2651
2.161401	-0.360625	42.3006
-1.638599	-0.160625	37.6964
-1.238599	-0.160625	37.0104
-0.838599	-0.160625	34.3382
-0.438599	-0.160625	36.0148
-0.038599	-0.160625	25.8358
0.361401	-0.160625	26.8155
0.761401	-0.160625	29.4028
1.161401	-0.160625	44.0341
1.561401	-0.160625	49.1398
1.961401	-0.160625	57.6822
-1.838599	0.039375	39.455
-1.438599	0.039375	36.3655
-1.038599	0.039375	36.456
-0.638599	0.039375	37.987
-0.238599	0.039375	37.3676
0.161401	0.039375	28.6935
0.561401	0.039375	30.1179
0.961401	0.039375	35.9104
1.361401	0.039375	46.9404
1.761401	0.039375	45.4895
2.161401	0.039375	49.5671
-1.638599	0.239375	33.4359
-1.238599	0.239375	34.0332
-0.838599	0.239375	33.8006
-0.438599	0.239375	36.4647
-0.038599	0.239375	36.6939
0.361401	0.239375	37.5606
0.761401	0.239375	33.7623
1.161401	0.239375	43.205
1.561401	0.239375	44.0706
1.961401	0.239375	45.4569
-1.838599	0.439375	32.2029
-1.438599	0.439375	33.1757
-1.038599	0.439375	33.6761
-0.638599	0.439375	33.9978
-0.238599	0.439375	37.5706
0.161401	0.439375	43.1543
0.561401	0.439375	42.9648
0.961401	0.439375	40.8188
1.361401	0.439375	44.454
1.761401	0.439375	43.5878
2.161401	0.439375	48.1139
-1.638599	0.639375	33.8849
-1.238599	0.639375	35.1851
-0.838599	0.639375	35.1967
-0.438599	0.639375	39.5505
-0.038599	0.639375	41.2264
0.361401	0.639375	46.1057
0.761401	0.639375	41.8689
1.161401	0.639375	44.997
1.561401	0.639375	42.7811
1.961401	0.639375	45.0773
-1.838599	0.839375	40.065
-1.438599	0.839375	35.0544
-1.038599	0.839375	38.5713
-0.638599	0.839375	37.9709
-0.238599	0.839375	43.3516
0.161401	0.839375	43.6582
0.561401	0.839375	49.3576
0.961401	0.839375	44.0849
1.361401	0.839375	47.4399
1.761401	0.839375	45.5769
2.161401	0.839375	47.2761
-1.638599	1.039375	29.643
-1.238599	1.039375	37.7084
-0.838599	1.039375	41.6013
-0.438599	1.039375	42.5058
-0.038599	1.039375	43.9743
0.361401	1.039375	37.4479
0.761401	1.039375	50.5759
1.161401	1.039375	55.9747
1.561401	1.039375	59.6586
1.961401	1.039375	54.4086
-1.838599	1.239375	20.9467
-1.438599	1.239375	32.7975
-1.038599	1.239375	39.5116
-0.638599	1.239375	41.6112
-0.238599	1.239375	44.4165
0.161401	1.239375	49.4052
0.561401	1.239375	60.4997
0.961401	1.239375	34.2863
1.361401	1.239375	32.4873
1.761401	1.239375	72.6441
2.161401	1.239375	47.2219
-1.638599	1.439375	34.7621
-1.238599	1.439375	36.8172
-0.838599	1.439375	36.349
-0.438599	1.439375	39.9894
-0.038599	1.439375	48.8607
0.361401	1.439375	102.377
0.761401	1.439375	66.5957
1.161401	1.439375	55.2578
1.561401	1.439375	46.0396
1.961401	1.439375	44.1745
-1.838599	1.639375	139.586
-1.438599	1.639375	35.1695
-1.038599	1.639375	30.0625
-0.638599	1.639375	49.2336
-0.238599	1.639375	110.502
0.161401	1.639375	25.9321
0.561401	1.639375	56.1717
0.961401	1.639375	65.2065
1.361401	1.639375	51.5799
1.761401	1.639375	51.9605
2.161401	1.639375	64.2794
-1.638599	1.839375	41.9985
-1.238599	1.839375	38.184
-0.838599	1.839375	22.8972
-0.438599	1.839375	32.9832
-0.038599	1.839375	2.428104
0.361401	1.839375	51.5468
0.761401	1.839375	71.4743
1.161401	1.839375	56.2041
1.561401	1.839375	58.7643
1.961401	1.839375	50.1077
-1.838599	2.039375	68.6798
-1.438599	2.039375	43.4498
-1.038599	2.039375	4.621848
-0.638599	2.039375	61.4137
-0.238599	2.039375	520.514
0.161401	2.039375	42.7524
0.561401	2.039375	60.8536
0.961401	2.039375	56.8604
1.361401	2.039375	51.322
1.761401	2.039375	54.0533
2.161401	2.039375	33.7471
-1.638599	2.239375	2595.04
-1.238599	2.239375	31.176
-0.838599	2.239375	3.780196
-0.438599	2.239375	36.634
-0.038599	2.239375	46.8297
0.361401	2.239375	54.7718
0.761401	2.239375	54.4821
1.161401	2.239375	48.0709
1.561401	2.239375	47.356
1.961401	2.239375	34.4079
2.161401	2.239375	37.1754