File: data/derived_data/raman/20171207_GrNH2_from_20171130/20171207_GrNH2_map_1/G int.txt
#XList		#YList		#IList
-1.838599	-0.760625	259.435
-1.438599	-0.760625	411.943
-1.038599	-0.760625	416.532
-0.638599	-0.760625	437.235
-0.238599	-0.760625	536.379
0.161401	-0.760625	537.096
0.561401	-0.760625	619.064
0.961401	-0.760625	383.792
1.361401	-0.760625	362.236
1.761401	-0.760625	139.894
2.161401	-0.760625	196.28
-1.638599	-0.560625	415.239
-1.238599	-0.560625	442.945
-0.838599	-0.560625	418.184
-0.438599	-0.560625	420.63
-0.038599	-0.560625	544.47
0.361401	-0.560625	621.51
0.761401	-0.560625	501.475
1.161401	-0.560625	362.406
1.561401	-0.560625	269.918
1.961401	-0.560625	99.8849
-1.838599	-0.360625	362.605
-1.438599	-0.360625	433.137
-1.038599	-0.360625	425.274
-0.638599	-0.360625	387.059
-0.238599	-0.360625	438.364
0.161401	-0.360625	572.762
0.561401	-0.360625	612.807
0.961401	-0.360625	434.632
1.361401	-0.360625	266.47
1.761401	-0.360625	92.0983
2.161401	-0.360625	85.8948
-1.638599	-0.160625	431.571
-1.238599	-0.160625	385.478
-0.838599	-0.160625	394.146
-0.438599	-0.160625	393.721
-0.038599	-0.160625	489.17
0.361401	-0.160625	589.527
0.761401	-0.160625	517.601
1.161401	-0.160625	326.241
1.561401	-0.160625	143.04
1.961401	-0.160625	84.0596
-1.838599	0.039375	170.874
-1.438599	0.039375	356.309
-1.038599	0.039375	391.579
-0.638599	0.039375	378.123
-0.238599	0.039375	385.232
0.161401	0.039375	487.178
0.561401	0.039375	529.271
0.961401	0.039375	434.618
1.361401	0.039375	234.956
1.761401	0.039375	299.148
2.161401	0.039375	154.29
-1.638599	0.239375	303.516
-1.238599	0.239375	366.594
-0.838599	0.239375	411.255
-0.438599	0.239375	400.992
-0.038599	0.239375	377.936
0.361401	0.239375	407.735
0.761401	0.239375	440.721
1.161401	0.239375	341.046
1.561401	0.239375	419.245
1.961401	0.239375	516.67
-1.838599	0.439375	85.9738
-1.438599	0.439375	354.051
-1.038599	0.439375	383.034
-0.638599	0.439375	393.84
-0.238599	0.439375	388.165
0.161401	0.439375	358.017
0.561401	0.439375	347.709
0.961401	0.439375	375.968
1.361401	0.439375	263.35
1.761401	0.439375	533.259
2.161401	0.439375	465.254
-1.638599	0.639375	189.728
-1.238599	0.639375	352.719
-0.838599	0.639375	374.837
-0.438599	0.639375	369.453
-0.038599	0.639375	333.055
0.361401	0.639375	247.095
0.761401	0.639375	243.163
1.161401	0.639375	279.191
1.561401	0.639375	127.746
1.961401	0.639375	293.428
-1.838599	0.839375	20.1836
-1.438599	0.839375	252.167
-1.038599	0.839375	320.474
-0.638599	0.839375	342.819
-0.238599	0.839375	268.853
0.161401	0.839375	178.589
0.561401	0.839375	89.563
0.961401	0.839375	108.992
1.361401	0.839375	116.072
1.761401	0.839375	52.6928
2.161401	0.839375	103.805
-1.638599	1.039375	49.8797
-1.238599	1.039375	252.435
-0.838599	1.039375	271.391
-0.438599	1.039375	208.038
-0.038599	1.039375	96.1171
0.361401	1.039375	39.5387
0.761401	1.039375	19.6258
1.161401	1.039375	41.8662
1.561401	1.039375	23.8597
1.961401	1.039375	23.3499
-1.838599	1.239375	4.539176
-1.438599	1.239375	79.4623
-1.038599	1.239375	194.882
-0.638599	1.239375	125.69
-0.238599	1.239375	56.2681
0.161401	1.239375	14.3144
0.561401	1.239375	12.4921
0.961401	1.239375	17.0067
1.361401	1.239375	11.8375
1.761401	1.239375	11.8353
2.161401	1.239375	13.999
-1.638599	1.439375	10.0638
-1.238599	1.439375	66.3996
-0.838599	1.439375	64.3825
-0.438599	1.439375	27.1418
-0.038599	1.439375	11.5352
0.361401	1.439375	5.726817
0.761401	1.439375	10.9097
1.161401	1.439375	17.0453
1.561401	1.439375	14.7309
1.961401	1.439375	10.1349
-1.838599	1.639375	0.867049
-1.438599	1.639375	8.234948
-1.038599	1.639375	21.1528
-0.638599	1.639375	11.8245
-0.238599	1.639375	5.668180
0.161401	1.639375	7.142365
0.561401	1.639375	10.952
0.961401	1.639375	28.5024
1.361401	1.639375	33.3941
1.761401	1.639375	18.7103
2.161401	1.639375	9.357688
-1.638599	1.839375	3.471019
-1.238599	1.839375	5.584720
-0.838599	1.839375	7.557002
-0.438599	1.839375	5.455130
-0.038599	1.839375	9.728315
0.361401	1.839375	7.043858
0.761401	1.839375	29.6534
1.161401	1.839375	68.8165
1.561401	1.839375	39.6164
1.961401	1.839375	20.4682
-1.838599	2.039375	0.822149
-1.438599	2.039375	0.466654
-1.038599	2.039375	5.580694
-0.638599	2.039375	2.885986
-0.238599	2.039375	1.929682
0.161401	2.039375	4.855550
0.561401	2.039375	22.0638
0.961401	2.039375	122.488
1.361401	2.039375	187.008
1.761401	2.039375	53.6282
2.161401	2.039375	27.029
-1.638599	2.239375	-1e+10
-1.238599	2.239375	3.150865
-0.838599	2.239375	-2.766951
-0.438599	2.239375	2.551292
-0.038599	2.239375	4.668082
0.361401	2.239375	12.5856
0.761401	2.239375	103.844
1.161401	2.239375	402.781
1.561401	2.239375	251.03
1.961401	2.239375	68.6784
2.161401	2.239375	50.8007