File: data/derived_data/raman/20171207_GrNH2_from_20171130/20171207_GrNH2_map_1/G pos.txt
#XList		#YList		#IList
-1.838599	-0.760625	1588.51
-1.438599	-0.760625	1586.3
-1.038599	-0.760625	1586.6
-0.638599	-0.760625	1585.9
-0.238599	-0.760625	1584.36
0.161401	-0.760625	1584.35
0.561401	-0.760625	1586.15
0.961401	-0.760625	1588.94
1.361401	-0.760625	1589.1
1.761401	-0.760625	1588.12
2.161401	-0.760625	1586.56
-1.638599	-0.560625	1586.64
-1.238599	-0.560625	1586.11
-0.838599	-0.560625	1586.88
-0.438599	-0.560625	1586.71
-0.038599	-0.560625	1583.57
0.361401	-0.560625	1584.19
0.761401	-0.560625	1586.08
1.161401	-0.560625	1590.55
1.561401	-0.560625	1590.24
1.961401	-0.560625	1587.88
-1.838599	-0.360625	1586.87
-1.438599	-0.360625	1586.36
-1.038599	-0.360625	1586.23
-0.638599	-0.360625	1587.25
-0.238599	-0.360625	1584.98
0.161401	-0.360625	1584.31
0.561401	-0.360625	1583.87
0.961401	-0.360625	1585.83
1.361401	-0.360625	1589.51
1.761401	-0.360625	1590.64
2.161401	-0.360625	1586.45
-1.638599	-0.160625	1586.38
-1.238599	-0.160625	1587.28
-0.838599	-0.160625	1586.09
-0.438599	-0.160625	1587.15
-0.038599	-0.160625	1584.33
0.361401	-0.160625	1584.22
0.761401	-0.160625	1584.05
1.161401	-0.160625	1587.9
1.561401	-0.160625	1589.34
1.961401	-0.160625	1588.33
-1.838599	0.039375	1587.84
-1.438599	0.039375	1587.51
-1.038599	0.039375	1587.01
-0.638599	0.039375	1587.08
-0.238599	0.039375	1587.1
0.161401	0.039375	1584.67
0.561401	0.039375	1584.6
0.961401	0.039375	1586.07
1.361401	0.039375	1589.16
1.761401	0.039375	1586.47
2.161401	0.039375	1587.7
-1.638599	0.239375	1586.49
-1.238599	0.239375	1586.6
-0.838599	0.239375	1586.09
-0.438599	0.239375	1586.6
-0.038599	0.239375	1586.08
0.361401	0.239375	1586.13
0.761401	0.239375	1585.44
1.161401	0.239375	1586.87
1.561401	0.239375	1584.43
1.961401	0.239375	1584.99
-1.838599	0.439375	1586.8
-1.438599	0.439375	1586.24
-1.038599	0.439375	1586.37
-0.638599	0.439375	1585.8
-0.238599	0.439375	1586.42
0.161401	0.439375	1588.2
0.561401	0.439375	1587.81
0.961401	0.439375	1587.52
1.361401	0.439375	1588.59
1.761401	0.439375	1583.64
2.161401	0.439375	1586.48
-1.638599	0.639375	1586.41
-1.238599	0.639375	1586.09
-0.838599	0.639375	1586.52
-0.438599	0.639375	1587.58
-0.038599	0.639375	1588.25
0.361401	0.639375	1589.67
0.761401	0.639375	1587.82
1.161401	0.639375	1588.64
1.561401	0.639375	1587.91
1.961401	0.639375	1585.85
-1.838599	0.839375	1588.94
-1.438599	0.839375	1586.68
-1.038599	0.839375	1587.26
-0.638599	0.839375	1587.51
-0.238599	0.839375	1588.52
0.161401	0.839375	1588.64
0.561401	0.839375	1591.69
0.961401	0.839375	1589.27
1.361401	0.839375	1591.41
1.761401	0.839375	1588.83
2.161401	0.839375	1589.78
-1.638599	1.039375	1587.01
-1.238599	1.039375	1587.36
-0.838599	1.039375	1588.69
-0.438599	1.039375	1588.65
-0.038599	1.039375	1588.83
0.361401	1.039375	1587.51
0.761401	1.039375	1589.85
1.161401	1.039375	1594.49
1.561401	1.039375	1591.19
1.961401	1.039375	1587.02
-1.838599	1.239375	1591.71
-1.438599	1.239375	1587.73
-1.038599	1.239375	1588.48
-0.638599	1.239375	1588.87
-0.238599	1.239375	1590.53
0.161401	1.239375	1589.91
0.561401	1.239375	1593.29
0.961401	1.239375	1593
1.361401	1.239375	1587.41
1.761401	1.239375	1586.33
2.161401	1.239375	1590.21
-1.638599	1.439375	1590.6
-1.238599	1.439375	1588.38
-0.838599	1.439375	1587.36
-0.438599	1.439375	1589.89
-0.038599	1.439375	1590.52
0.361401	1.439375	1573.99
0.761401	1.439375	1589.78
1.161401	1.439375	1583.55
1.561401	1.439375	1593.08
1.961401	1.439375	1586.65
-1.838599	1.639375	1548.28
-1.438599	1.639375	1587.22
-1.038599	1.639375	1588.2
-0.638599	1.639375	1588.13
-0.238599	1.639375	1600.8
0.161401	1.639375	1597.1
0.561401	1.639375	1590.02
0.961401	1.639375	1592.57
1.361401	1.639375	1586.87
1.761401	1.639375	1593.51
2.161401	1.639375	1589.97
-1.638599	1.839375	1584.16
-1.238599	1.839375	1590.82
-0.838599	1.839375	1585.72
-0.438599	1.839375	1579.07
-0.038599	1.839375	1601.1
0.361401	1.839375	1595.41
0.761401	1.839375	1590.79
1.161401	1.839375	1585.42
1.561401	1.839375	1583.84
1.961401	1.839375	1584.77
-1.838599	2.039375	1566.89
-1.438599	2.039375	1593.17
-1.038599	2.039375	1592.44
-0.638599	2.039375	1596.67
-0.238599	2.039375	1566.92
0.161401	2.039375	1597.76
0.561401	2.039375	1593.69
0.961401	2.039375	1587.43
1.361401	2.039375	1588.1
1.761401	2.039375	1587.81
2.161401	2.039375	1586.05
-1.638599	2.239375	1e+10
-1.238599	2.239375	1662.76
-0.838599	2.239375	1587.28
-0.438599	2.239375	1609.5
-0.038599	2.239375	1595.32
0.361401	2.239375	1585.48
0.761401	2.239375	1589.61
1.161401	2.239375	1586.83
1.561401	2.239375	1588.28
1.961401	2.239375	1585.75
2.161401	2.239375	1586.7