File: data/derived_data/raman/20170920_Gr-NH2_for_Radisurf/20170920 Gr-NH for Radisurf map 1/2D FWHM.txt
#XList		#YList		#IList
-28	-22	6.395258
-9.000000	-22	158.385
10	-22	124.243
29	-22	77.9096
-18.5	-21.5	106.099
0.500000	-21.5	126.071
19.5	-21.5	136.997
-28	-21	2595.12
-9.000000	-21	178.863
10	-21	127.965
29	-21	79.0962
-18.5	-20.5	166.463
0.500000	-20.5	106.562
19.5	-20.5	115.591
-28	-20	91.6936
-9.000000	-20	115.702
10	-20	115.818
29	-20	94.3856
-18.5	-19.5	133.942
0.500000	-19.5	1306.98
19.5	-19.5	133.93
-28	-19	1423.93
-9.000000	-19	117.653
10	-19	118.679
29	-19	122.487
-18.5	-18.5	93.5826
0.500000	-18.5	54.097
19.5	-18.5	134.343
-28	-18	120.691
-9.000000	-18	9.216150
10	-18	139.642
29	-18	168.441
-18.5	-17.5	78.7659
0.500000	-17.5	75.8929
19.5	-17.5	104.123
-28	-17	78.7273
-9.000000	-17	119.214
10	-17	179.904
29	-17	156.897
-18.5	-16.5	146.181
0.500000	-16.5	78.5158
19.5	-16.5	97.8084
-28	-16	85.6059
-9.000000	-16	174.534
10	-16	124.95
29	-16	77.2399
-18.5	-15.5	161.862
0.500000	-15.5	74.04
19.5	-15.5	84.8279
-28	-15	72.7895
-9.000000	-15	124.126
10	-15	118.349
29	-15	83.2178
-18.5	-14.5	166.407
0.500000	-14.5	78.3854
19.5	-14.5	60.5696
-28	-14	64.297
-9.000000	-14	193.588
10	-14	98.1125
29	-14	90.5305
-18.5	-13.5	145.223
0.500000	-13.5	98.9194
19.5	-13.5	290.998
-28	-13	1265.65
-9.000000	-13	150.984
10	-13	105.97
29	-13	92.2068
-18.5	-12.5	164.189
0.500000	-12.5	117.661
19.5	-12.5	922.781
-28	-12	224.401
-9.000000	-12	146.25
10	-12	61.7611
29	-12	103.008
-18.5	-11.5	161.174
0.500000	-11.5	100.77
19.5	-11.5	96.7632
-28	-11	46.9174
-9.000000	-11	172.569
10	-11	86.2849
29	-11	208.17
-18.5	-10.5	169.822
0.500000	-10.5	125.858
19.5	-10.5	96.9792
-28	-10	149.026
-9.000000	-10	180.111
10	-10	80.0932
29	-10	3.363928
-18.5	-9.500000	153.925
0.500000	-9.500000	106.744
19.5	-9.500000	74.2066
-28	-9.000000	168.706
-9.000000	-9.000000	195.75
10	-9.000000	92.3677
29	-9.000000	80.8614
-18.5	-8.500000	167.222
0.500000	-8.500000	135.834
19.5	-8.500000	85.5467
-28	-8.000000	121.329
-9.000000	-8.000000	159.41
10	-8.000000	93.8465
29	-8.000000	73.12
-18.5	-7.500000	214.17
0.500000	-7.500000	152.996
19.5	-7.500000	149.958
-28	-7.000000	161.977
-9.000000	-7.000000	125.373
10	-7.000000	103.381
29	-7.000000	73.0623
-18.5	-6.500000	174.54
0.500000	-6.500000	128.431
19.5	-6.500000	135.323
-28	-6.000000	125.744
-9.000000	-6.000000	143.658
10	-6.000000	148.915
29	-6.000000	70.5775
-18.5	-5.500000	148.133
0.500000	-5.500000	139.31
19.5	-5.500000	186.521
-28	-5.000000	140.27
-9.000000	-5.000000	1502.47
10	-5.000000	99.4626
29	-5.000000	144.819
-18.5	-4.500000	147.572
0.500000	-4.500000	140.781
19.5	-4.500000	134.136
-28	-4.000000	91.8683
-9.000000	-4.000000	258.032
10	-4.000000	74.5984
29	-4.000000	82.9778
-18.5	-3.500000	107.989
0.500000	-3.500000	156.361
19.5	-3.500000	121.764
-28	-3.000000	93.7227
-9.000000	-3.000000	1460.82
10	-3.000000	129.62
29	-3.000000	142.436
-18.5	-2.500000	135.861
0.500000	-2.500000	172.538
19.5	-2.500000	126.108
-28	-2.000000	102.579
-9.000000	-2.000000	127.497
10	-2.000000	182.76
29	-2.000000	118.915
-18.5	-1.500000	132.558
0.500000	-1.500000	114.123
19.5	-1.500000	108.745
-28	-1.000000	123.112
-9.000000	-1.000000	111.535
10	-1.000000	130.284
29	-1.000000	128.802
-18.5	-0.500000	149.423
0.500000	-0.500000	107.587
19.5	-0.500000	118.345
-28	0.000000	125.162
-9.000000	0.000000	127.81
10	0.000000	140.365
29	0.000000	97.9703
-18.5	0.500000	146.251
0.500000	0.500000	133.886
19.5	0.500000	132.084
-28	1.000000	176.537
-9.000000	1.000000	119.757
10	1.000000	103.649
29	1.000000	158.858
-18.5	1.500000	121.974
0.500000	1.500000	126.97
19.5	1.500000	108.242
-28	2.000000	121.695
-9.000000	2.000000	109.908
10	2.000000	114.578
29	2.000000	110.273
-18.5	2.500000	135.397
0.500000	2.500000	108.983
19.5	2.500000	128.62
-28	3.000000	137.469
-9.000000	3.000000	113.786
10	3.000000	136.721
29	3.000000	103.985
-18.5	3.500000	95.2254
0.500000	3.500000	104.777
19.5	3.500000	116.523
-28	4.000000	158.061
-9.000000	4.000000	105.826
10	4.000000	123.687
29	4.000000	98.0586
-18.5	4.500000	109.614
0.500000	4.500000	121.874
19.5	4.500000	158.29
-28	5.000000	130.347
-9.000000	5.000000	122.983
10	5.000000	122.64
29	5.000000	127.452
-18.5	5.500000	122.991
0.500000	5.500000	129.618
19.5	5.500000	140.78
-28	6.000000	149.912
-9.000000	6.000000	152.895
10	6.000000	90.3385
29	6.000000	101.01
-18.5	6.500000	98.9154
0.500000	6.500000	155.764
19.5	6.500000	109.829
-28	7.000000	128.477
-9.000000	7.000000	196.433
10	7.000000	80.5578
29	7.000000	136.277
-18.5	7.500000	106.773
0.500000	7.500000	114.455
19.5	7.500000	103.123
-28	8.000000	68.392
-9.000000	8.000000	132.801
10	8.000000	80.5172
29	8.000000	114.908
-18.5	8.500000	115.978
0.500000	8.500000	114.029
19.5	8.500000	100.423
-28	9.000000	1.544280
-9.000000	9.000000	176.753
10	9.000000	102.776
29	9.000000	128.945
-18.5	9.500000	118.985
0.500000	9.500000	113.385
19.5	9.500000	125.801
-28	10	1214.62
-9.000000	10	155.709
10	10	105.193
29	10	142.945
-18.5	10.5	739.718
0.500000	10.5	87.7534
19.5	10.5	109.721
-28	11	344.302
-9.000000	11	165.178
10	11	91.9836
29	11	150.769
-18.5	11.5	145.423
0.500000	11.5	84.7384
19.5	11.5	129.818
-28	12	62.4317
-9.000000	12	128.956
10	12	84.1741
29	12	129.911
-18.5	12.5	1495.03
0.500000	12.5	102.489
19.5	12.5	110.441
-28	13	989.662
-9.000000	13	154.336
10	13	77.9993
29	13	130.716
-18.5	13.5	67.0071
0.500000	13.5	147.033
19.5	13.5	100.598
-28	14	1722.16
-9.000000	14	159.944
10	14	117.885
29	14	121.631
-18.5	14.5	1814.68
0.500000	14.5	144.396
19.5	14.5	117.919
-28	15	1388.72
-9.000000	15	155.697
10	15	156.932
29	15	183.429
-18.5	15.5	0.639823
0.500000	15.5	90.449
19.5	15.5	131.161
-28	16	1.807410
-9.000000	16	166.104
10	16	133.251
29	16	146.459
-18.5	16.5	3.581948
0.500000	16.5	327.285
19.5	16.5	97.7104
-28	17	34.0084
-9.000000	17	127.789
10	17	105.18
29	17	135.436
-18.5	17.5	37.7321
0.500000	17.5	144.744
19.5	17.5	97.5271
-28	18	351.296
-9.000000	18	114.612
10	18	130.378
29	18	78.1907
-18.5	18.5	2101.68
0.500000	18.5	107.78
19.5	18.5	91.9824
-28	19	126.543
-9.000000	19	88.0988
10	19	104.695
29	19	709.416
-18.5	19.5	411.124
0.500000	19.5	95.088
19.5	19.5	105.784
-28	20	107.341
-9.000000	20	87.8885
10	20	127.961
29	20	0.639823
38	20	1466.07