File: data/derived_data/raman/20170920_Gr-NH2_for_Radisurf/20170920 Gr-NH for Radisurf map 1/2D int.txt
#XList		#YList		#IList
-28	-22	2.679912
-9.000000	-22	93.3271
10	-22	89.8069
29	-22	22.4522
-18.5	-21.5	76.196
0.500000	-21.5	72.2998
19.5	-21.5	109.803
-28	-21	1.938757
-9.000000	-21	59.8162
10	-21	72.2492
29	-21	69.1486
-18.5	-20.5	72.5198
0.500000	-20.5	6.167353
19.5	-20.5	104.194
-28	-20	0.504952
-9.000000	-20	42.8982
10	-20	74.3693
29	-20	111.866
-18.5	-19.5	76.4914
0.500000	-19.5	2.175454
19.5	-19.5	99.0101
-28	-19	0.954149
-9.000000	-19	21.9503
10	-19	74.5934
29	-19	105.981
-18.5	-18.5	96.8401
0.500000	-18.5	2.241112
19.5	-18.5	90.2541
-28	-18	4.564296
-9.000000	-18	1.832931
10	-18	74.4445
29	-18	43.082
-18.5	-17.5	70.504
0.500000	-17.5	71.564
19.5	-17.5	80.6124
-28	-17	86.8352
-9.000000	-17	1.269091
10	-17	78.7236
29	-17	41.9774
-18.5	-16.5	82.1815
0.500000	-16.5	84.4449
19.5	-16.5	80.628
-28	-16	76.6698
-9.000000	-16	29.5688
10	-16	63.505
29	-16	83.3608
-18.5	-15.5	80.9414
0.500000	-15.5	104.873
19.5	-15.5	64.9765
-28	-15	119.106
-9.000000	-15	104.402
10	-15	73.4686
29	-15	76.1306
-18.5	-14.5	75.6134
0.500000	-14.5	143.431
19.5	-14.5	6.411913
-28	-14	5.502409
-9.000000	-14	62.4347
10	-14	62.3855
29	-14	114.565
-18.5	-13.5	43.1074
0.500000	-13.5	104.572
19.5	-13.5	2.029473
-28	-13	2.355817
-9.000000	-13	65.9858
10	-13	14.373
29	-13	149.209
-18.5	-12.5	14.2631
0.500000	-12.5	70.6308
19.5	-12.5	6.355599
-28	-12	4.353969
-9.000000	-12	86.2348
10	-12	9.128281
29	-12	122.99
-18.5	-11.5	67.6339
0.500000	-11.5	51.098
19.5	-11.5	27.2685
-28	-11	3.824979
-9.000000	-11	85.2275
10	-11	102.129
29	-11	7.036489
-18.5	-10.5	73.3188
0.500000	-10.5	80.021
19.5	-10.5	134.446
-28	-10	33.0103
-9.000000	-10	72.7447
10	-10	93.1191
29	-10	7.889092
-18.5	-9.500000	79.0438
0.500000	-9.500000	87.9024
19.5	-9.500000	124.051
-28	-9.000000	33.0375
-9.000000	-9.000000	69.1767
10	-9.000000	133.076
29	-9.000000	12.5981
-18.5	-8.500000	72.3235
0.500000	-8.500000	99.6752
19.5	-8.500000	126.726
-28	-8.000000	6.566416
-9.000000	-8.000000	62.8224
10	-8.000000	137.508
29	-8.000000	129.216
-18.5	-7.500000	87.0861
0.500000	-7.500000	104.087
19.5	-7.500000	23.162
-28	-7.000000	11.1658
-9.000000	-7.000000	84.5037
10	-7.000000	54.4804
29	-7.000000	112.874
-18.5	-6.500000	61.6879
0.500000	-6.500000	82.4989
19.5	-6.500000	56.8205
-28	-6.000000	21.7375
-9.000000	-6.000000	40.9656
10	-6.000000	57.8673
29	-6.000000	113.724
-18.5	-5.500000	71.4799
0.500000	-5.500000	58.6321
19.5	-5.500000	55.1417
-28	-5.000000	32.8452
-9.000000	-5.000000	2.614864
10	-5.000000	103.306
29	-5.000000	31.0977
-18.5	-4.500000	86.6926
0.500000	-4.500000	54.0955
19.5	-4.500000	42.7865
-28	-4.000000	31.2515
-9.000000	-4.000000	0.000000
10	-4.000000	115.188
29	-4.000000	133.138
-18.5	-3.500000	52.9392
0.500000	-3.500000	62.3212
19.5	-3.500000	45.6953
-28	-3.000000	30.1424
-9.000000	-3.000000	2.212563
10	-3.000000	111.069
29	-3.000000	70.6158
-18.5	-2.500000	56.3554
0.500000	-2.500000	64.1209
19.5	-2.500000	52.1687
-28	-2.000000	38.4456
-9.000000	-2.000000	15.3947
10	-2.000000	68.582
29	-2.000000	95.0735
-18.5	-1.500000	42.8568
0.500000	-1.500000	60.5259
19.5	-1.500000	46.2693
-28	-1.000000	35.6251
-9.000000	-1.000000	70.3243
10	-1.000000	68.8708
29	-1.000000	97.0601
-18.5	-0.500000	70.0498
0.500000	-0.500000	24.2621
19.5	-0.500000	43.4253
-28	0.000000	26.2659
-9.000000	0.000000	72.2823
10	0.000000	81.721
29	0.000000	72.295
-18.5	0.500000	94.7473
0.500000	0.500000	61.5207
19.5	0.500000	50.411
-28	1.000000	35.5898
-9.000000	1.000000	87.0924
10	1.000000	125.184
29	1.000000	67.0065
-18.5	1.500000	88.29
0.500000	1.500000	71.3422
19.5	1.500000	50.6514
-28	2.000000	85.2713
-9.000000	2.000000	89.4761
10	2.000000	118.336
29	2.000000	95.598
-18.5	2.500000	79.9159
0.500000	2.500000	98.6878
19.5	2.500000	50.8543
-28	3.000000	112.805
-9.000000	3.000000	92.2838
10	3.000000	78.9467
29	3.000000	98.442
-18.5	3.500000	86.8597
0.500000	3.500000	107.819
19.5	3.500000	49.455
-28	4.000000	95.7425
-9.000000	4.000000	97.2118
10	4.000000	79.2719
29	4.000000	109.113
-18.5	4.500000	91.4241
0.500000	4.500000	90.5106
19.5	4.500000	44.4508
-28	5.000000	91.442
-9.000000	5.000000	85.156
10	5.000000	67.4877
29	5.000000	85.815
-18.5	5.500000	102.881
0.500000	5.500000	92.0413
19.5	5.500000	45.1652
-28	6.000000	75.0505
-9.000000	6.000000	94.4163
10	6.000000	67.0896
29	6.000000	57.1187
-18.5	6.500000	122.076
0.500000	6.500000	86.6938
19.5	6.500000	69.3305
-28	7.000000	48.379
-9.000000	7.000000	73.4673
10	7.000000	85.8921
29	7.000000	66.0763
-18.5	7.500000	108.14
0.500000	7.500000	84.7879
19.5	7.500000	90.7666
-28	8.000000	5.658742
-9.000000	8.000000	62.0593
10	8.000000	91.2661
29	8.000000	47.9367
-18.5	8.500000	99.4524
0.500000	8.500000	72.3841
19.5	8.500000	51.7003
-28	9.000000	3.604139
-9.000000	9.000000	75.7014
10	9.000000	125.753
29	9.000000	49.9177
-18.5	9.500000	47.9965
0.500000	9.500000	119.059
19.5	9.500000	77.4016
-28	10	3.611977
-9.000000	10	71.4867
10	10	90.7823
29	10	62.3105
-18.5	10.5	7.115297
0.500000	10.5	141.903
19.5	10.5	75.4333
-28	11	3.736077
-9.000000	11	77.2748
10	11	93.3899
29	11	62.3246
-18.5	11.5	11.1157
0.500000	11.5	130.164
19.5	11.5	91.4736
-28	12	6.696233
-9.000000	12	79.1743
10	12	82.2454
29	12	55.8505
-18.5	12.5	1.474002
0.500000	12.5	116.334
19.5	12.5	101.522
-28	13	1.725365
-9.000000	13	98.8792
10	13	103.967
29	13	60.999
-18.5	13.5	0.906849
0.500000	13.5	84.9528
19.5	13.5	104.791
-28	14	1.910031
-9.000000	14	98.8037
10	14	119.49
29	14	65.2226
-18.5	14.5	1.449817
0.500000	14.5	11.8427
19.5	14.5	113.727
-28	15	1.570993
-9.000000	15	49.025
10	15	46.7039
29	15	63.1727
-18.5	15.5	0.000000
0.500000	15.5	42.7516
19.5	15.5	86.4725
-28	16	10.2503
-9.000000	16	61.7046
10	16	76.1235
29	16	66.7579
-18.5	16.5	4.006058
0.500000	16.5	3.607882
19.5	16.5	98.9472
-28	17	2.292901
-9.000000	17	92.0788
10	17	20.5771
29	17	45.3438
-18.5	17.5	0.334402
0.500000	17.5	24.4612
19.5	17.5	78.8148
-28	18	1.233935
-9.000000	18	76.2297
10	18	9.954467
29	18	28.8011
-18.5	18.5	1.220032
0.500000	18.5	35.873
19.5	18.5	95.1042
-28	19	12.7333
-9.000000	19	61.0156
10	19	37.1624
29	19	2.824022
-18.5	19.5	0.000000
0.500000	19.5	128.613
19.5	19.5	131.615
-28	20	149.358
-9.000000	20	15.1617
10	20	36.6085
29	20	0.000000
38	20	1.971184