File: data/derived_data/raman/20170920_Gr-NH2_for_Radisurf/20170920 Gr-NH for Radisurf map 1/2D pos.txt
#XList		#YList		#IList
-28	-22	2669.87
-9.000000	-22	2689.65
10	-22	2688.34
29	-22	2712.81
-18.5	-21.5	2692.96
0.500000	-21.5	2685.84
19.5	-21.5	2693.72
-28	-21	2650
-9.000000	-21	2686.64
10	-21	2689.22
29	-21	2711.69
-18.5	-20.5	2688.54
0.500000	-20.5	2710.02
19.5	-20.5	2692.93
-28	-20	2676.55
-9.000000	-20	2691.34
10	-20	2689.63
29	-20	2712.6
-18.5	-19.5	2687.01
0.500000	-19.5	2664.24
19.5	-19.5	2696.08
-28	-19	2650
-9.000000	-19	2696.41
10	-19	2690.51
29	-19	2707.66
-18.5	-18.5	2699.85
0.500000	-18.5	2703.19
19.5	-18.5	2689.85
-28	-18	2700.42
-9.000000	-18	2690.32
10	-18	2684.07
29	-18	2694.94
-18.5	-17.5	2711.5
0.500000	-17.5	2708.59
19.5	-17.5	2692.79
-28	-17	2707.15
-9.000000	-17	2657.75
10	-17	2679.14
29	-17	2696.69
-18.5	-16.5	2696.93
0.500000	-16.5	2710.44
19.5	-16.5	2700.37
-28	-16	2710.36
-9.000000	-16	2705.71
10	-16	2684.7
29	-16	2712.37
-18.5	-15.5	2685.67
0.500000	-15.5	2714.86
19.5	-15.5	2700.81
-28	-15	2706.57
-9.000000	-15	2691.74
10	-15	2689.26
29	-15	2712.7
-18.5	-14.5	2685.06
0.500000	-14.5	2707.23
19.5	-14.5	2686.49
-28	-14	2710.04
-9.000000	-14	2696.37
10	-14	2696.89
29	-14	2711.41
-18.5	-13.5	2683.15
0.500000	-13.5	2693.91
19.5	-13.5	2650
-28	-13	2692.07
-9.000000	-13	2688.76
10	-13	2690.76
29	-13	2706.25
-18.5	-12.5	2710.3
0.500000	-12.5	2696.9
19.5	-12.5	2750
-28	-12	2740.77
-9.000000	-12	2682.69
10	-12	2707.94
29	-12	2702.48
-18.5	-11.5	2687.06
0.500000	-11.5	2695.6
19.5	-11.5	2693.47
-28	-11	2721.73
-9.000000	-11	2685.54
10	-11	2704.1
29	-11	2719.93
-18.5	-10.5	2682.25
0.500000	-10.5	2692.72
19.5	-10.5	2703.89
-28	-10	2687.76
-9.000000	-10	2686.66
10	-10	2706.59
29	-10	2686.23
-18.5	-9.500000	2691.2
0.500000	-9.500000	2698.68
19.5	-9.500000	2710.02
-28	-9.000000	2691.18
-9.000000	-9.000000	2682.96
10	-9.000000	2704.47
29	-9.000000	2702.3
-18.5	-8.500000	2685.58
0.500000	-8.500000	2694.86
19.5	-8.500000	2706.01
-28	-8.000000	2690.06
-9.000000	-8.000000	2689.21
10	-8.000000	2704.52
29	-8.000000	2709.6
-18.5	-7.500000	2690.24
0.500000	-7.500000	2694.84
19.5	-7.500000	2689.02
-28	-7.000000	2707.71
-9.000000	-7.000000	2695.54
10	-7.000000	2695.18
29	-7.000000	2713.12
-18.5	-6.500000	2690.65
0.500000	-6.500000	2693.96
19.5	-6.500000	2689
-28	-6.000000	2710.07
-9.000000	-6.000000	2691.63
10	-6.000000	2690.52
29	-6.000000	2712.78
-18.5	-5.500000	2697.86
0.500000	-5.500000	2697.29
19.5	-5.500000	2689.44
-28	-5.000000	2704.39
-9.000000	-5.000000	2750
10	-5.000000	2701.06
29	-5.000000	2706.12
-18.5	-4.500000	2699.57
0.500000	-4.500000	2695.27
19.5	-4.500000	2688.48
-28	-4.000000	2708.08
-9.000000	-4.000000	2750
10	-4.000000	2709.41
29	-4.000000	2703.68
-18.5	-3.500000	2697.71
0.500000	-3.500000	2695.83
19.5	-3.500000	2699.19
-28	-3.000000	2702.41
-9.000000	-3.000000	2650
10	-3.000000	2700.68
29	-3.000000	2694.11
-18.5	-2.500000	2694.65
0.500000	-2.500000	2690.18
19.5	-2.500000	2693.67
-28	-2.000000	2702.89
-9.000000	-2.000000	2699.47
10	-2.000000	2686.03
29	-2.000000	2694.31
-18.5	-1.500000	2698.18
0.500000	-1.500000	2697.8
19.5	-1.500000	2698.16
-28	-1.000000	2706.81
-9.000000	-1.000000	2686.85
10	-1.000000	2687.69
29	-1.000000	2693.64
-18.5	-0.500000	2690
0.500000	-0.500000	2704.18
19.5	-0.500000	2696.22
-28	0.000000	2706.73
-9.000000	0.000000	2690.29
10	0.000000	2687.66
29	0.000000	2691.5
-18.5	0.500000	2693.14
0.500000	0.500000	2689.07
19.5	0.500000	2699.3
-28	1.000000	2705.62
-9.000000	1.000000	2692.51
10	1.000000	2693.52
29	1.000000	2689.7
-18.5	1.500000	2696.42
0.500000	1.500000	2693.56
19.5	1.500000	2698.72
-28	2.000000	2706.66
-9.000000	2.000000	2699.1
10	2.000000	2692.62
29	2.000000	2694.62
-18.5	2.500000	2688.48
0.500000	2.500000	2702.36
19.5	2.500000	2695.68
-28	3.000000	2705.96
-9.000000	3.000000	2704.38
10	3.000000	2694.25
29	3.000000	2699.01
-18.5	3.500000	2695.45
0.500000	3.500000	2697.57
19.5	3.500000	2693.76
-28	4.000000	2700.32
-9.000000	4.000000	2694.1
10	4.000000	2702.19
29	4.000000	2700.1
-18.5	4.500000	2698.01
0.500000	4.500000	2695.7
19.5	4.500000	2694.67
-28	5.000000	2697.55
-9.000000	5.000000	2699.9
10	5.000000	2707.99
29	5.000000	2699.54
-18.5	5.500000	2698.94
0.500000	5.500000	2698.57
19.5	5.500000	2692.33
-28	6.000000	2697.82
-9.000000	6.000000	2694.25
10	6.000000	2709.04
29	6.000000	2694.56
-18.5	6.500000	2705.11
0.500000	6.500000	2698.12
19.5	6.500000	2695.47
-28	7.000000	2698.57
-9.000000	7.000000	2696.8
10	7.000000	2710.68
29	7.000000	2691.13
-18.5	7.500000	2704.03
0.500000	7.500000	2697.17
19.5	7.500000	2693.75
-28	8.000000	2697.19
-9.000000	8.000000	2695.59
10	8.000000	2712.81
29	8.000000	2691.16
-18.5	8.500000	2700.39
0.500000	8.500000	2690.04
19.5	8.500000	2693.95
-28	9.000000	2749.82
-9.000000	9.000000	2694.27
10	9.000000	2699.47
29	9.000000	2692.58
-18.5	9.500000	2697.54
0.500000	9.500000	2696.55
19.5	9.500000	2692.82
-28	10	2732.72
-9.000000	10	2692.77
10	10	2701.44
29	10	2692.57
-18.5	10.5	2748.44
0.500000	10.5	2697.5
19.5	10.5	2693.2
-28	11	2731.52
-9.000000	11	2697.27
10	11	2705.24
29	11	2691.78
-18.5	11.5	2697.55
0.500000	11.5	2698.85
19.5	11.5	2697.92
-28	12	2705.74
-9.000000	12	2691.19
10	12	2709.38
29	12	2690.97
-18.5	12.5	2650
0.500000	12.5	2696.94
19.5	12.5	2697.9
-28	13	2704.4
-9.000000	13	2693.45
10	13	2711.01
29	13	2688.95
-18.5	13.5	2650
0.500000	13.5	2690.91
19.5	13.5	2697.97
-28	14	2650
-9.000000	14	2694.12
10	14	2700.94
29	14	2693.03
-18.5	14.5	2650
0.500000	14.5	2700.09
19.5	14.5	2698
-28	15	2750
-9.000000	15	2695.49
10	15	2693.32
29	15	2691.66
-18.5	15.5	2750
0.500000	15.5	2701.99
19.5	15.5	2694.2
-28	16	2688.76
-9.000000	16	2692.16
10	16	2692.11
29	16	2684.37
-18.5	16.5	2744.62
0.500000	16.5	2700.94
19.5	16.5	2702.28
-28	17	2703.07
-9.000000	17	2692.18
10	17	2700.69
29	17	2691
-18.5	17.5	2750
0.500000	17.5	2698.51
19.5	17.5	2703.8
-28	18	2650
-9.000000	18	2701.43
10	18	2718.15
29	18	2706.07
-18.5	18.5	2650
0.500000	18.5	2701.97
19.5	18.5	2704.74
-28	19	2708.79
-9.000000	19	2702.17
10	19	2688.33
29	19	2663.03
-18.5	19.5	2650
0.500000	19.5	2704.56
19.5	19.5	2703.94
-28	20	2702.24
-9.000000	20	2710.18
10	20	2697.82
29	20	2750
38	20	2650