File: data/derived_data/raman/20170920_Gr-NH2_for_Radisurf/20170920 Gr-NH for Radisurf map 1/2Dp pos.txt
#XList		#YList		#IList
-28	-22	3131.74
-9.000000	-22	3149.41
10	-22	3169.45
29	-22	3242.4
-18.5	-21.5	3147.68
0.500000	-21.5	3161.63
19.5	-21.5	3147.69
-28	-21	3350
-9.000000	-21	3155.16
10	-21	3153.88
29	-21	3230.44
-18.5	-20.5	3145.37
0.500000	-20.5	3350
19.5	-20.5	3168.36
-28	-20	3350
-9.000000	-20	3176.79
10	-20	3166
29	-20	3179.69
-18.5	-19.5	3162.32
0.500000	-19.5	3285.14
19.5	-19.5	3164.3
-28	-19	3350
-9.000000	-19	3176.69
10	-19	3188.73
29	-19	3181.96
-18.5	-18.5	3207.7
0.500000	-18.5	3223.47
19.5	-18.5	3142.72
-28	-18	3350
-9.000000	-18	3308.33
10	-18	3161.37
29	-18	3157.56
-18.5	-17.5	3237.96
0.500000	-17.5	3245
19.5	-17.5	3146.72
-28	-17	3238.45
-9.000000	-17	3350
10	-17	3147.44
29	-17	3177.29
-18.5	-16.5	3185.47
0.500000	-16.5	3161.73
19.5	-16.5	3153.47
-28	-16	3188.84
-9.000000	-16	3157.42
10	-16	3194.04
29	-16	3196.88
-18.5	-15.5	3145.2
0.500000	-15.5	3234.73
19.5	-15.5	3216.39
-28	-15	3194.89
-9.000000	-15	3117.5
10	-15	3153.2
29	-15	3213.84
-18.5	-14.5	3181.41
0.500000	-14.5	3217.13
19.5	-14.5	3292.27
-28	-14	3350
-9.000000	-14	3139.8
10	-14	3206.61
29	-14	3132.28
-18.5	-13.5	3200.21
0.500000	-13.5	3191.36
19.5	-13.5	3350
-28	-13	3350
-9.000000	-13	3156.98
10	-13	3180.46
29	-13	3152.27
-18.5	-12.5	3146.37
0.500000	-12.5	3186.63
19.5	-12.5	3249.81
-28	-12	3185.71
-9.000000	-12	3152.37
10	-12	3176.3
29	-12	3163.2
-18.5	-11.5	3154.57
0.500000	-11.5	3179.04
19.5	-11.5	3220.08
-28	-11	3100
-9.000000	-11	3155.45
10	-11	3242.11
29	-11	3309.03
-18.5	-10.5	3165.68
0.500000	-10.5	3155.15
19.5	-10.5	3195.5
-28	-10	3188.04
-9.000000	-10	3152.02
10	-10	3189.19
29	-10	3100
-18.5	-9.500000	3129.49
0.500000	-9.500000	3158.66
19.5	-9.500000	3241.86
-28	-9.000000	3168.7
-9.000000	-9.000000	3149.2
10	-9.000000	3180.68
29	-9.000000	3198.38
-18.5	-8.500000	3147.57
0.500000	-8.500000	3145.95
19.5	-8.500000	3238.58
-28	-8.000000	3207.88
-9.000000	-8.000000	3145.61
10	-8.000000	3182.11
29	-8.000000	3237.2
-18.5	-7.500000	3144.23
0.500000	-7.500000	3126.06
19.5	-7.500000	3181.34
-28	-7.000000	3144.22
-9.000000	-7.000000	3161.01
10	-7.000000	3189.87
29	-7.000000	3221.9
-18.5	-6.500000	3155.21
0.500000	-6.500000	3164.49
19.5	-6.500000	3172.95
-28	-6.000000	3165.19
-9.000000	-6.000000	3153.56
10	-6.000000	3172.42
29	-6.000000	3242.6
-18.5	-5.500000	3137.14
0.500000	-5.500000	3188.5
19.5	-5.500000	3137.02
-28	-5.000000	3164.74
-9.000000	-5.000000	3167.15
10	-5.000000	3175.47
29	-5.000000	3167.81
-18.5	-4.500000	3150.76
0.500000	-4.500000	3142.36
19.5	-4.500000	3143.49
-28	-4.000000	3195.87
-9.000000	-4.000000	3350
10	-4.000000	3221.98
29	-4.000000	3228.8
-18.5	-3.500000	3126.14
0.500000	-3.500000	3157.02
19.5	-3.500000	3137.18
-28	-3.000000	3171.05
-9.000000	-3.000000	3350
10	-3.000000	3161.69
29	-3.000000	3149.75
-18.5	-2.500000	3160.59
0.500000	-2.500000	3158.1
19.5	-2.500000	3161.94
-28	-2.000000	3201.87
-9.000000	-2.000000	3148.73
10	-2.000000	3125.75
29	-2.000000	3143.48
-18.5	-1.500000	3160.45
0.500000	-1.500000	3188.51
19.5	-1.500000	3143.47
-28	-1.000000	3192.94
-9.000000	-1.000000	3140.96
10	-1.000000	3153.89
29	-1.000000	3151.05
-18.5	-0.500000	3160.4
0.500000	-0.500000	3161.43
19.5	-0.500000	3130.02
-28	0.000000	3186.02
-9.000000	0.000000	3142.13
10	0.000000	3157.03
29	0.000000	3200.72
-18.5	0.500000	3169.91
0.500000	0.500000	3148.17
19.5	0.500000	3136.18
-28	1.000000	3166.81
-9.000000	1.000000	3148.21
10	1.000000	3163.29
29	1.000000	3136.2
-18.5	1.500000	3169.03
0.500000	1.500000	3169.71
19.5	1.500000	3154.92
-28	2.000000	3170.83
-9.000000	2.000000	3155.57
10	2.000000	3150.17
29	2.000000	3154.29
-18.5	2.500000	3141.68
0.500000	2.500000	3181.93
19.5	2.500000	3122.27
-28	3.000000	3178.06
-9.000000	3.000000	3160.55
10	3.000000	3162.09
29	3.000000	3144.07
-18.5	3.500000	3161.35
0.500000	3.500000	3170.47
19.5	3.500000	3173.92
-28	4.000000	3166.95
-9.000000	4.000000	3162.27
10	4.000000	3170.28
29	4.000000	3170.85
-18.5	4.500000	3165.27
0.500000	4.500000	3165.3
19.5	4.500000	3142.97
-28	5.000000	3168.59
-9.000000	5.000000	3178.48
10	5.000000	3178.91
29	5.000000	3146.96
-18.5	5.500000	3172.96
0.500000	5.500000	3160.02
19.5	5.500000	3121.15
-28	6.000000	3172.6
-9.000000	6.000000	3150
10	6.000000	3179.73
29	6.000000	3149.09
-18.5	6.500000	3150.92
0.500000	6.500000	3130.4
19.5	6.500000	3136.06
-28	7.000000	3169.49
-9.000000	7.000000	3158.82
10	7.000000	3224.85
29	7.000000	3162.71
-18.5	7.500000	3181.68
0.500000	7.500000	3174.39
19.5	7.500000	3152.71
-28	8.000000	3159
-9.000000	8.000000	3156.98
10	8.000000	3190.98
29	8.000000	3131.73
-18.5	8.500000	3156.98
0.500000	8.500000	3150.54
19.5	8.500000	3190.91
-28	9.000000	3100
-9.000000	9.000000	3161.33
10	9.000000	3150.93
29	9.000000	3150.92
-18.5	9.500000	3192.86
0.500000	9.500000	3156.24
19.5	9.500000	3139.4
-28	10	3319.77
-9.000000	10	3149.95
10	10	3164.8
29	10	3165.12
-18.5	10.5	3179.02
0.500000	10.5	3174.99
19.5	10.5	3174.35
-28	11	3269.75
-9.000000	11	3155.95
10	11	3198.74
29	11	3171.01
-18.5	11.5	3149.83
0.500000	11.5	3158.86
19.5	11.5	3166.28
-28	12	3100
-9.000000	12	3169.11
10	12	3182.5
29	12	3152.53
-18.5	12.5	3170.73
0.500000	12.5	3165.52
19.5	12.5	3175.33
-28	13	3193.04
-9.000000	13	3149.81
10	13	3177.28
29	13	3179.11
-18.5	13.5	3350
0.500000	13.5	3151.11
19.5	13.5	3175.2
-28	14	3350
-9.000000	14	3138.66
10	14	3160.6
29	14	3167.68
-18.5	14.5	3350
0.500000	14.5	3150.01
19.5	14.5	3168.45
-28	15	3167.94
-9.000000	15	3157.87
10	15	3163.25
29	15	3154.98
-18.5	15.5	3350
0.500000	15.5	3142.04
19.5	15.5	3144.33
-28	16	3177.56
-9.000000	16	3147.23
10	16	3170.17
29	16	3167.79
-18.5	16.5	3350
0.500000	16.5	3342.97
19.5	16.5	3169.12
-28	17	3350
-9.000000	17	3145.15
10	17	3182.6
29	17	3100
-18.5	17.5	3348.9
0.500000	17.5	3189.96
19.5	17.5	3186.33
-28	18	3270.58
-9.000000	18	3168.64
10	18	3182.05
29	18	3350
-18.5	18.5	3324.2
0.500000	18.5	3147.4
19.5	18.5	3181.8
-28	19	3191.71
-9.000000	19	3210.4
10	19	3222.75
29	19	3228.93
-18.5	19.5	3350
0.500000	19.5	3165.22
19.5	19.5	3164.18
-28	20	3176.97
-9.000000	20	3139.12
10	20	3161.74
29	20	3350
38	20	3169.35