File: data/derived_data/raman/20170920_Gr-NH2_for_Radisurf/20170920 Gr-NH for Radisurf map 1/2Dp FWHM.txt
#XList		#YList		#IList
-28	-22	2595.12
-9.000000	-22	105.487
10	-22	154.699
29	-22	217.191
-18.5	-21.5	58.3501
0.500000	-21.5	90.1064
19.5	-21.5	149.528
-28	-21	294.87
-9.000000	-21	111.438
10	-21	153.658
29	-21	95.4077
-18.5	-20.5	145.677
0.500000	-20.5	115.673
19.5	-20.5	112.243
-28	-20	2514.73
-9.000000	-20	52.3143
10	-20	122.18
29	-20	154.655
-18.5	-19.5	92.9682
0.500000	-19.5	187.684
19.5	-19.5	174.037
-28	-19	1478.83
-9.000000	-19	107.149
10	-19	48.218
29	-19	128.637
-18.5	-18.5	96.2198
0.500000	-18.5	2507.35
19.5	-18.5	116.472
-28	-18	1708.43
-9.000000	-18	82.0171
10	-18	137.804
29	-18	111.45
-18.5	-17.5	22.1876
0.500000	-17.5	22.3244
19.5	-17.5	65.3644
-28	-17	25.1403
-9.000000	-17	1292.5
10	-17	159.885
29	-17	144.801
-18.5	-16.5	96.6483
0.500000	-16.5	182.876
19.5	-16.5	51.8609
-28	-16	114.537
-9.000000	-16	135.327
10	-16	86.5192
29	-16	135.383
-18.5	-15.5	155.902
0.500000	-15.5	51.5675
19.5	-15.5	111.664
-28	-15	14.0863
-9.000000	-15	183.897
10	-15	125.716
29	-15	87.0956
-18.5	-14.5	82.0834
0.500000	-14.5	82.1847
19.5	-14.5	20.6553
-28	-14	2595.12
-9.000000	-14	148.726
10	-14	54.5219
29	-14	236.013
-18.5	-13.5	18.3276
0.500000	-13.5	81.2611
19.5	-13.5	2117.75
-28	-13	250.523
-9.000000	-13	116.835
10	-13	16.292
29	-13	185.996
-18.5	-12.5	46.6684
0.500000	-12.5	132.965
19.5	-12.5	328.266
-28	-12	266.075
-9.000000	-12	107.784
10	-12	1707.21
29	-12	155.654
-18.5	-11.5	106.354
0.500000	-11.5	43.0423
19.5	-11.5	37.1948
-28	-11	1823.93
-9.000000	-11	129.226
10	-11	35.6704
29	-11	426.686
-18.5	-10.5	109.276
0.500000	-10.5	146.872
19.5	-10.5	134.497
-28	-10	61.8984
-9.000000	-10	131.252
10	-10	94.3375
29	-10	2595.12
-18.5	-9.500000	181.56
0.500000	-9.500000	105.485
19.5	-9.500000	8.345836
-28	-9.000000	155.998
-9.000000	-9.000000	126.368
10	-9.000000	134.908
29	-9.000000	85.3776
-18.5	-8.500000	93.0586
0.500000	-8.500000	134.959
19.5	-8.500000	28.9701
-28	-8.000000	142.601
-9.000000	-8.000000	121.043
10	-8.000000	156.502
29	-8.000000	26.0901
-18.5	-7.500000	168.561
0.500000	-7.500000	176.614
19.5	-7.500000	116.818
-28	-7.000000	154.225
-9.000000	-7.000000	156.623
10	-7.000000	56.5102
29	-7.000000	247.754
-18.5	-6.500000	133.082
0.500000	-6.500000	149.628
19.5	-6.500000	100.655
-28	-6.000000	96.2615
-9.000000	-6.000000	128.067
10	-6.000000	66.3313
29	-6.000000	10.6156
-18.5	-5.500000	157.774
0.500000	-5.500000	86.6529
19.5	-5.500000	224.184
-28	-5.000000	106.316
-9.000000	-5.000000	5.659247
10	-5.000000	130.859
29	-5.000000	77.7475
-18.5	-4.500000	125.135
0.500000	-4.500000	130.581
19.5	-4.500000	107.86
-28	-4.000000	71.2129
-9.000000	-4.000000	1133.01
10	-4.000000	85.8529
29	-4.000000	22.9113
-18.5	-3.500000	84.1571
0.500000	-3.500000	137.092
19.5	-3.500000	103.086
-28	-3.000000	118.52
-9.000000	-3.000000	0.639823
10	-3.000000	132.336
29	-3.000000	152.299
-18.5	-2.500000	94.3096
0.500000	-2.500000	126.134
19.5	-2.500000	138.264
-28	-2.000000	102.98
-9.000000	-2.000000	121.089
10	-2.000000	137.39
29	-2.000000	176.858
-18.5	-1.500000	68.7241
0.500000	-1.500000	75.0479
19.5	-1.500000	125.319
-28	-1.000000	162.317
-9.000000	-1.000000	95.9638
10	-1.000000	74.1634
29	-1.000000	165.109
-18.5	-0.500000	156.024
0.500000	-0.500000	131.8
19.5	-0.500000	171.612
-28	0.000000	123.589
-9.000000	0.000000	63.6877
10	0.000000	120.385
29	0.000000	41.9151
-18.5	0.500000	138.369
0.500000	0.500000	159.308
19.5	0.500000	117.159
-28	1.000000	110.272
-9.000000	1.000000	143.096
10	1.000000	152.426
29	1.000000	157.092
-18.5	1.500000	134.317
0.500000	1.500000	96.6497
19.5	1.500000	102.637
-28	2.000000	132.793
-9.000000	2.000000	148.434
10	2.000000	155.449
29	2.000000	102.469
-18.5	2.500000	159.142
0.500000	2.500000	116.569
19.5	2.500000	146.285
-28	3.000000	154.503
-9.000000	3.000000	224.915
10	3.000000	97.006
29	3.000000	152.214
-18.5	3.500000	69.8712
0.500000	3.500000	130.338
19.5	3.500000	60.606
-28	4.000000	183.026
-9.000000	4.000000	180.403
10	4.000000	138.046
29	4.000000	138.666
-18.5	4.500000	116.919
0.500000	4.500000	102.723
19.5	4.500000	155.876
-28	5.000000	163.251
-9.000000	5.000000	133.227
10	5.000000	135.823
29	5.000000	290.833
-18.5	5.500000	112.537
0.500000	5.500000	171.32
19.5	5.500000	163.04
-28	6.000000	176.526
-9.000000	6.000000	138.773
10	6.000000	118.097
29	6.000000	105.392
-18.5	6.500000	180.219
0.500000	6.500000	232.481
19.5	6.500000	147.957
-28	7.000000	146.686
-9.000000	7.000000	150.891
10	7.000000	69.3837
29	7.000000	123.24
-18.5	7.500000	129.043
0.500000	7.500000	94.6826
19.5	7.500000	153.611
-28	8.000000	21.8555
-9.000000	8.000000	62.7082
10	8.000000	123.254
29	8.000000	130.886
-18.5	8.500000	123.274
0.500000	8.500000	102.441
19.5	8.500000	97.3849
-28	9.000000	2189.58
-9.000000	9.000000	138.449
10	9.000000	203.123
29	9.000000	129.591
-18.5	9.500000	67.515
0.500000	9.500000	162.588
19.5	9.500000	156.769
-28	10	42.1937
-9.000000	10	125.363
10	10	159.179
29	10	146.549
-18.5	10.5	16.7972
0.500000	10.5	145.654
19.5	10.5	103.595
-28	11	246.869
-9.000000	11	145.367
10	11	115.77
29	11	133.059
-18.5	11.5	47.0616
0.500000	11.5	28.7435
19.5	11.5	154.41
-28	12	2595.12
-9.000000	12	87.3223
10	12	61.3677
29	12	173.281
-18.5	12.5	2.651392
0.500000	12.5	150.169
19.5	12.5	174.793
-28	13	5.936460
-9.000000	13	177.039
10	13	127.167
29	13	82.5484
-18.5	13.5	2595.12
0.500000	13.5	208.927
19.5	13.5	98.4201
-28	14	119.018
-9.000000	14	233.356
10	14	136.539
29	14	133.935
-18.5	14.5	1562.02
0.500000	14.5	0.639823
19.5	14.5	142.894
-28	15	9.692891
-9.000000	15	133.885
10	15	95.1422
29	15	155.333
-18.5	15.5	2595.12
0.500000	15.5	103.846
19.5	15.5	139.102
-28	16	2595.12
-9.000000	16	151.468
10	16	125.477
29	16	129.836
-18.5	16.5	2595.12
0.500000	16.5	976.194
19.5	16.5	112.854
-28	17	2595.12
-9.000000	17	132.112
10	17	22.0389
29	17	0.639823
-18.5	17.5	2595.12
0.500000	17.5	5.996194
19.5	17.5	134.274
-28	18	223.963
-9.000000	18	144.798
10	18	45.5734
29	18	2595.12
-18.5	18.5	161.644
0.500000	18.5	87.1153
19.5	18.5	150.18
-28	19	261.25
-9.000000	19	125.6
10	19	18.4965
29	19	110.552
-18.5	19.5	2595.12
0.500000	19.5	148.765
19.5	19.5	187.144
-28	20	140.58
-9.000000	20	70.3759
10	20	69.5817
29	20	2595.12
38	20	145.443