File: data/derived_data/raman/20170920_Gr-NH2_for_Radisurf/20170920 Gr-NH for Radisurf map 1/2Dp int.txt
#XList		#YList		#IList
-28	-22	1.662526
-9.000000	-22	20.8289
10	-22	18.7471
29	-22	2.308062
-18.5	-21.5	13.8798
0.500000	-21.5	8.789414
19.5	-21.5	23.7428
-28	-21	1.441168
-9.000000	-21	12.9272
10	-21	13.0841
29	-21	4.893651
-18.5	-20.5	14.4141
0.500000	-20.5	0.460210
19.5	-20.5	17.0516
-28	-20	2.702222
-9.000000	-20	13.1677
10	-20	10.3688
29	-20	15.9761
-18.5	-19.5	13.8424
0.500000	-19.5	1.017104
19.5	-19.5	20.3966
-28	-19	1.623067
-9.000000	-19	3.642164
10	-19	8.018570
29	-19	19.2459
-18.5	-18.5	6.917621
0.500000	-18.5	1.536863
19.5	-18.5	18.2599
-28	-18	1.566507
-9.000000	-18	0.000000
10	-18	15.3048
29	-18	9.982177
-18.5	-17.5	10.9333
0.500000	-17.5	9.141809
19.5	-17.5	10.612
-28	-17	14.3188
-9.000000	-17	2.698700
10	-17	17.8356
29	-17	12.9832
-18.5	-16.5	19.124
0.500000	-16.5	5.714006
19.5	-16.5	11.7201
-28	-16	4.586040
-9.000000	-16	10.3766
10	-16	6.912355
29	-16	5.112257
-18.5	-15.5	17.257
0.500000	-15.5	10.9263
19.5	-15.5	6.021742
-28	-15	4.069349
-9.000000	-15	14.393
10	-15	9.740986
29	-15	7.016740
-18.5	-14.5	14.9096
0.500000	-14.5	12.5278
19.5	-14.5	1.467185
-28	-14	2.405854
-9.000000	-14	20.994
10	-14	5.191334
29	-14	13.4946
-18.5	-13.5	8.505288
0.500000	-13.5	11.0544
19.5	-13.5	1.694011
-28	-13	0.276805
-9.000000	-13	14.2885
10	-13	9.265605
29	-13	14.6892
-18.5	-12.5	10.4585
0.500000	-12.5	10.1023
19.5	-12.5	2.722433
-28	-12	1.131950
-9.000000	-12	12.1858
10	-12	1.634145
29	-12	13.0287
-18.5	-11.5	15.4559
0.500000	-11.5	3.207934
19.5	-11.5	3.951251
-28	-11	1.323152
-9.000000	-11	24.0338
10	-11	9.093466
29	-11	0.568275
-18.5	-10.5	16.1462
0.500000	-10.5	15.4238
19.5	-10.5	14.6665
-28	-10	7.179344
-9.000000	-10	20.6383
10	-10	7.880357
29	-10	1.712942
-18.5	-9.500000	13.1106
0.500000	-9.500000	11.0791
19.5	-9.500000	28.617
-28	-9.000000	9.743437
-9.000000	-9.000000	23.5518
10	-9.000000	12.4718
29	-9.000000	2.484310
-18.5	-8.500000	21.2846
0.500000	-8.500000	16.7239
19.5	-8.500000	20.8649
-28	-8.000000	2.038096
-9.000000	-8.000000	16.3669
10	-8.000000	10.4695
29	-8.000000	17.0768
-18.5	-7.500000	30.7059
0.500000	-7.500000	20.1774
19.5	-7.500000	7.484648
-28	-7.000000	2.589949
-9.000000	-7.000000	13.5302
10	-7.000000	6.019429
29	-7.000000	9.606038
-18.5	-6.500000	17.0327
0.500000	-6.500000	9.748914
19.5	-6.500000	12.7829
-28	-6.000000	6.223705
-9.000000	-6.000000	5.639043
10	-6.000000	11.4827
29	-6.000000	23.6764
-18.5	-5.500000	16.9385
0.500000	-5.500000	9.876072
19.5	-5.500000	15.5117
-28	-5.000000	11.5281
-9.000000	-5.000000	5.781015
10	-5.000000	8.862513
29	-5.000000	7.967350
-18.5	-4.500000	21.3502
0.500000	-4.500000	11.9591
19.5	-4.500000	8.334120
-28	-4.000000	6.518924
-9.000000	-4.000000	2.716203
10	-4.000000	12.2464
29	-4.000000	18.5325
-18.5	-3.500000	5.400930
0.500000	-3.500000	14.3459
19.5	-3.500000	8.652235
-28	-3.000000	3.735268
-9.000000	-3.000000	0.135615
10	-3.000000	21.9955
29	-3.000000	17.8948
-18.5	-2.500000	11.2816
0.500000	-2.500000	14.3003
19.5	-2.500000	9.294254
-28	-2.000000	6.848943
-9.000000	-2.000000	5.208435
10	-2.000000	13.9478
29	-2.000000	14.3841
-18.5	-1.500000	6.820598
0.500000	-1.500000	9.188410
19.5	-1.500000	4.932617
-28	-1.000000	7.610083
-9.000000	-1.000000	5.464253
10	-1.000000	11.1455
29	-1.000000	17.5928
-18.5	-0.500000	17.5208
0.500000	-0.500000	4.260634
19.5	-0.500000	8.293379
-28	0.000000	7.199411
-9.000000	0.000000	12.0281
10	0.000000	18.0751
29	0.000000	10.1637
-18.5	0.500000	18.5386
0.500000	0.500000	11.6417
19.5	0.500000	12.409
-28	1.000000	14.4788
-9.000000	1.000000	12.9
10	1.000000	15.1015
29	1.000000	15.9404
-18.5	1.500000	21.5212
0.500000	1.500000	18.2056
19.5	1.500000	9.384882
-28	2.000000	15.6575
-9.000000	2.000000	10.7896
10	2.000000	19.9449
29	2.000000	12.2949
-18.5	2.500000	13.3411
0.500000	2.500000	15.1669
19.5	2.500000	10.4261
-28	3.000000	27.3849
-9.000000	3.000000	14.4343
10	3.000000	15.8878
29	3.000000	13.0832
-18.5	3.500000	8.370586
0.500000	3.500000	14.6593
19.5	3.500000	7.413727
-28	4.000000	26.6485
-9.000000	4.000000	12.7592
10	4.000000	17.0874
29	4.000000	16.6543
-18.5	4.500000	8.651098
0.500000	4.500000	23.8249
19.5	4.500000	13.1854
-28	5.000000	19.4474
-9.000000	5.000000	18.8731
10	5.000000	14.4563
29	5.000000	16.9026
-18.5	5.500000	17.9619
0.500000	5.500000	21.3144
19.5	5.500000	6.675563
-28	6.000000	19.5217
-9.000000	6.000000	21.9028
10	6.000000	7.942195
29	6.000000	8.816583
-18.5	6.500000	13.9759
0.500000	6.500000	19.6425
19.5	6.500000	11.0853
-28	7.000000	6.687236
-9.000000	7.000000	28.2372
10	7.000000	8.399099
29	7.000000	11.7509
-18.5	7.500000	14.2263
0.500000	7.500000	14.9152
19.5	7.500000	9.433363
-28	8.000000	4.725366
-9.000000	8.000000	11.6466
10	8.000000	8.907574
29	8.000000	6.409953
-18.5	8.500000	12.9039
0.500000	8.500000	10.4033
19.5	8.500000	7.471570
-28	9.000000	2.167355
-9.000000	9.000000	24.7024
10	9.000000	15.9709
29	9.000000	8.535858
-18.5	9.500000	8.355698
0.500000	9.500000	19.1334
19.5	9.500000	12.2152
-28	10	0.000000
-9.000000	10	17.8447
10	10	10.6005
29	10	13.342
-18.5	10.5	6.309935
0.500000	10.5	10.1801
19.5	10.5	9.373714
-28	11	3.452580
-9.000000	11	26.1037
10	11	13.7704
29	11	16.135
-18.5	11.5	4.937680
0.500000	11.5	8.920313
19.5	11.5	15.4522
-28	12	3.241765
-9.000000	12	19.1418
10	12	9.877210
29	12	10.1582
-18.5	12.5	4.936953
0.500000	12.5	16.0868
19.5	12.5	14.4193
-28	13	5.366193
-9.000000	13	25.6457
10	13	8.304441
29	13	13.4386
-18.5	13.5	1.668477
0.500000	13.5	16.0379
19.5	13.5	14.7412
-28	14	0.527894
-9.000000	14	24.7301
10	14	17.5648
29	14	13.0337
-18.5	14.5	0.865248
0.500000	14.5	3.130139
19.5	14.5	25.0576
-28	15	0.874945
-9.000000	15	11.1537
10	15	11.3465
29	15	18.3069
-18.5	15.5	1.803767
0.500000	15.5	3.278870
19.5	15.5	13.6645
-28	16	1.422274
-9.000000	16	14.2837
10	16	15.7408
29	16	10.8144
-18.5	16.5	1.955771
0.500000	16.5	1.635229
19.5	16.5	11.5252
-28	17	1.768687
-9.000000	17	13.1742
10	17	2.367663
29	17	0.000000
-18.5	17.5	0.970487
0.500000	17.5	16.576
19.5	17.5	10.7528
-28	18	0.955603
-9.000000	18	11.1047
10	18	3.637081
29	18	1.094072
-18.5	18.5	2.037612
0.500000	18.5	7.183242
19.5	18.5	12.5415
-28	19	2.628195
-9.000000	19	5.582542
10	19	4.789334
29	19	1.132630
-18.5	19.5	1.702512
0.500000	19.5	12.2197
19.5	19.5	17.5233
-28	20	22.6146
-9.000000	20	2.627264
10	20	5.898586
29	20	1.830693
38	20	2.208768