File: data/derived_data/raman/20170920_Gr-NH2_for_Radisurf/20170920 Gr-NH for Radisurf map 1/D FWHM.txt
#XList		#YList		#IList
-28	-22	2.376360
-9.000000	-22	98.838
10	-22	88.679
29	-22	126.096
-18.5	-21.5	85.3113
0.500000	-21.5	111.368
19.5	-21.5	93.28
-28	-21	1.070452
-9.000000	-21	101.324
10	-21	83.1413
29	-21	110.315
-18.5	-20.5	99.5594
0.500000	-20.5	70.042
19.5	-20.5	92.4996
-28	-20	4.098460
-9.000000	-20	109.933
10	-20	86.1893
29	-20	110.434
-18.5	-19.5	117.849
0.500000	-19.5	46.5708
19.5	-19.5	91.282
-28	-19	56.0894
-9.000000	-19	88.5855
10	-19	93.032
29	-19	95.7152
-18.5	-18.5	97.9316
0.500000	-18.5	41.0621
19.5	-18.5	94.7059
-28	-18	54.0554
-9.000000	-18	74.4391
10	-18	91.8032
29	-18	86.0567
-18.5	-17.5	96.3425
0.500000	-17.5	108.967
19.5	-17.5	117.222
-28	-17	90.4043
-9.000000	-17	87.0136
10	-17	102.282
29	-17	96.0621
-18.5	-16.5	99.9667
0.500000	-16.5	105.756
19.5	-16.5	110.86
-28	-16	92.9614
-9.000000	-16	95.6193
10	-16	105.471
29	-16	98.196
-18.5	-15.5	93.3538
0.500000	-15.5	101.133
19.5	-15.5	92.9213
-28	-15	82.3138
-9.000000	-15	89.3242
10	-15	104.71
29	-15	92.0163
-18.5	-14.5	105.373
0.500000	-14.5	89.0307
19.5	-14.5	92.3615
-28	-14	13.7729
-9.000000	-14	106.38
10	-14	115.531
29	-14	92.0542
-18.5	-13.5	102.787
0.500000	-13.5	77.3424
19.5	-13.5	49.1715
-28	-13	74.4934
-9.000000	-13	95.3011
10	-13	92.1731
29	-13	76.337
-18.5	-12.5	106.339
0.500000	-12.5	74.9971
19.5	-12.5	91.6477
-28	-12	62.1915
-9.000000	-12	100.988
10	-12	76.3249
29	-12	87.1147
-18.5	-11.5	100.755
0.500000	-11.5	70.4305
19.5	-11.5	84.2601
-28	-11	68.3418
-9.000000	-11	94.443
10	-11	86.5486
29	-11	74.0211
-18.5	-10.5	109.149
0.500000	-10.5	71.9455
19.5	-10.5	96.0298
-28	-10	96.5598
-9.000000	-10	104.833
10	-10	92.0587
29	-10	0.688534
-18.5	-9.500000	104.314
0.500000	-9.500000	103.724
19.5	-9.500000	114.883
-28	-9.000000	90.3664
-9.000000	-9.000000	105.474
10	-9.000000	92.4086
29	-9.000000	93.8627
-18.5	-8.500000	102.574
0.500000	-8.500000	92.2725
19.5	-8.500000	92.8578
-28	-8.000000	104.782
-9.000000	-8.000000	101.783
10	-8.000000	84.8344
29	-8.000000	83.1902
-18.5	-7.500000	98.6663
0.500000	-7.500000	94.9422
19.5	-7.500000	98.5032
-28	-7.000000	95.4606
-9.000000	-7.000000	96.0335
10	-7.000000	96.3258
29	-7.000000	76.9378
-18.5	-6.500000	96.9395
0.500000	-6.500000	110.006
19.5	-6.500000	93.8963
-28	-6.000000	103.77
-9.000000	-6.000000	106.659
10	-6.000000	87.2748
29	-6.000000	72.5417
-18.5	-5.500000	92.9751
0.500000	-5.500000	83.1484
19.5	-5.500000	91.9851
-28	-5.000000	98.8546
-9.000000	-5.000000	94.8604
10	-5.000000	89.7175
29	-5.000000	100.64
-18.5	-4.500000	91.1526
0.500000	-4.500000	85.1136
19.5	-4.500000	103.644
-28	-4.000000	100.553
-9.000000	-4.000000	47.2428
10	-4.000000	108.251
29	-4.000000	92.0297
-18.5	-3.500000	96.2201
0.500000	-3.500000	95.3891
19.5	-3.500000	94.9295
-28	-3.000000	115.492
-9.000000	-3.000000	55.1506
10	-3.000000	86.7823
29	-3.000000	91.9265
-18.5	-2.500000	83.112
0.500000	-2.500000	86.5266
19.5	-2.500000	85.1819
-28	-2.000000	103.196
-9.000000	-2.000000	98.8656
10	-2.000000	87.6115
29	-2.000000	86.2643
-18.5	-1.500000	89.5342
0.500000	-1.500000	90.8379
19.5	-1.500000	86.3825
-28	-1.000000	101.56
-9.000000	-1.000000	103.898
10	-1.000000	93.9418
29	-1.000000	82.182
-18.5	-0.500000	90.4791
0.500000	-0.500000	117.346
19.5	-0.500000	91.3329
-28	0.000000	103.74
-9.000000	0.000000	95.825
10	0.000000	91.1193
29	0.000000	97.9983
-18.5	0.500000	77.8984
0.500000	0.500000	104.176
19.5	0.500000	84.2161
-28	1.000000	98.8849
-9.000000	1.000000	86.7353
10	1.000000	85.1719
29	1.000000	94.1468
-18.5	1.500000	91.1738
0.500000	1.500000	93.8842
19.5	1.500000	96.8674
-28	2.000000	102.666
-9.000000	2.000000	81.4479
10	2.000000	84.512
29	2.000000	89.6502
-18.5	2.500000	89.5031
0.500000	2.500000	95.1909
19.5	2.500000	88.6632
-28	3.000000	99.0213
-9.000000	3.000000	80.4957
10	3.000000	88.5376
29	3.000000	92.8285
-18.5	3.500000	92.5814
0.500000	3.500000	100.222
19.5	3.500000	95.636
-28	4.000000	101.2
-9.000000	4.000000	82.8999
10	4.000000	84.7872
29	4.000000	87.225
-18.5	4.500000	88.4412
0.500000	4.500000	92.0255
19.5	4.500000	102.493
-28	5.000000	88.2206
-9.000000	5.000000	89.8493
10	5.000000	95.5716
29	5.000000	88.3155
-18.5	5.500000	98.5078
0.500000	5.500000	95.4564
19.5	5.500000	90.6731
-28	6.000000	80.8373
-9.000000	6.000000	95.449
10	6.000000	104.556
29	6.000000	98.7505
-18.5	6.500000	80.3283
0.500000	6.500000	91.9274
19.5	6.500000	86.6433
-28	7.000000	100.165
-9.000000	7.000000	93.596
10	7.000000	92.5238
29	7.000000	91.0561
-18.5	7.500000	88.7469
0.500000	7.500000	93.8108
19.5	7.500000	81.4086
-28	8.000000	105.302
-9.000000	8.000000	93.4206
10	8.000000	108.397
29	8.000000	103.801
-18.5	8.500000	93.8082
0.500000	8.500000	100.897
19.5	8.500000	99.5981
-28	9.000000	1.095103
-9.000000	9.000000	89.8264
10	9.000000	80.1204
29	9.000000	85.8395
-18.5	9.500000	84.6972
0.500000	9.500000	78.3045
19.5	9.500000	81.2384
-28	10	0.639823
-9.000000	10	94.2747
10	10	83.2859
29	10	82.8381
-18.5	10.5	90.0163
0.500000	10.5	73.6991
19.5	10.5	97.497
-28	11	75.745
-9.000000	11	88.2649
10	11	87.1786
29	11	84.9028
-18.5	11.5	99.5986
0.500000	11.5	82.8827
19.5	11.5	83.7596
-28	12	65.5959
-9.000000	12	89.6153
10	12	96.4588
29	12	92.762
-18.5	12.5	93.6147
0.500000	12.5	87.8256
19.5	12.5	79.2655
-28	13	99.7563
-9.000000	13	86.379
10	13	89.2576
29	13	91.3349
-18.5	13.5	0.639823
0.500000	13.5	92.2524
19.5	13.5	87.7253
-28	14	10.6063
-9.000000	14	89.0419
10	14	84.4777
29	14	92.2741
-18.5	14.5	48.9405
0.500000	14.5	96.1636
19.5	14.5	85.3685
-28	15	2.602879
-9.000000	15	90.0515
10	15	86.5106
29	15	89.3284
-18.5	15.5	0.639823
0.500000	15.5	90.8049
19.5	15.5	88.8916
-28	16	0.639823
-9.000000	16	92.5285
10	16	86.8478
29	16	97.184
-18.5	16.5	222.846
0.500000	16.5	87.932
19.5	16.5	80.8181
-28	17	66.6607
-9.000000	17	77.3504
10	17	86.5729
29	17	109.744
-18.5	17.5	2595.12
0.500000	17.5	103.936
19.5	17.5	78.4563
-28	18	97.1376
-9.000000	18	92.2791
10	18	110.383
29	18	84.6982
-18.5	18.5	773.137
0.500000	18.5	102.553
19.5	18.5	78.3928
-28	19	114.819
-9.000000	19	84.8548
10	19	95.4517
29	19	23.6185
-18.5	19.5	5.523347
0.500000	19.5	88.1426
19.5	19.5	81.2563
-28	20	98.1228
-9.000000	20	114.809
10	20	78.5675
29	20	256.976
38	20	60.1485