File: data/derived_data/raman/20170920_Gr-NH2_for_Radisurf/20170920 Gr-NH for Radisurf map 1/D int.txt
#XList		#YList		#IList
-28	-22	3.583256
-9.000000	-22	391.178
10	-22	316.939
29	-22	10.6639
-18.5	-21.5	237.393
0.500000	-21.5	192.633
19.5	-21.5	339.025
-28	-21	4.431904
-9.000000	-21	297.168
10	-21	196.247
29	-21	47.1002
-18.5	-20.5	259.712
0.500000	-20.5	14.7635
19.5	-20.5	284.217
-28	-20	2.397109
-9.000000	-20	276.678
10	-20	211.726
29	-20	94.8757
-18.5	-19.5	255.806
0.500000	-19.5	3.351803
19.5	-19.5	274.574
-28	-19	3.693740
-9.000000	-19	103.615
10	-19	260.234
29	-19	196.311
-18.5	-18.5	169.652
0.500000	-18.5	4.156569
19.5	-18.5	298.372
-28	-18	6.384788
-9.000000	-18	4.773731
10	-18	267.911
29	-18	205.691
-18.5	-17.5	68.642
0.500000	-17.5	52.724
19.5	-17.5	303.812
-28	-17	49.4487
-9.000000	-17	6.868470
10	-17	298.224
29	-17	154.361
-18.5	-16.5	282.569
0.500000	-16.5	48.1465
19.5	-16.5	279.688
-28	-16	58.5615
-9.000000	-16	123.391
10	-16	241.203
29	-16	62.4582
-18.5	-15.5	238.785
0.500000	-15.5	43.5747
19.5	-15.5	164.8
-28	-15	54.5657
-9.000000	-15	280.51
10	-15	254.265
29	-15	37.9304
-18.5	-14.5	299.493
0.500000	-14.5	142.723
19.5	-14.5	33.5016
-28	-14	4.647367
-9.000000	-14	314.818
10	-14	186.106
29	-14	96.4637
-18.5	-13.5	184.852
0.500000	-13.5	209.179
19.5	-13.5	7.336876
-28	-13	3.802430
-9.000000	-13	328.005
10	-13	82.7993
29	-13	136.491
-18.5	-12.5	53.8101
0.500000	-12.5	154.06
19.5	-12.5	14.2695
-28	-12	12.2955
-9.000000	-12	304.78
10	-12	10.9881
29	-12	186.066
-18.5	-11.5	330.97
0.500000	-11.5	109.043
19.5	-11.5	105.329
-28	-11	7.757865
-9.000000	-11	310.297
10	-11	99.8824
29	-11	14.4903
-18.5	-10.5	280.091
0.500000	-10.5	188.59
19.5	-10.5	172.868
-28	-10	188.46
-9.000000	-10	284.655
10	-10	96.4471
29	-10	5.480497
-18.5	-9.500000	326.613
0.500000	-9.500000	219.701
19.5	-9.500000	57.0738
-28	-9.000000	176.338
-9.000000	-9.000000	258.786
10	-9.000000	169.226
29	-9.000000	20.9549
-18.5	-8.500000	335.294
0.500000	-8.500000	258.054
19.5	-8.500000	101.97
-28	-8.000000	19.3241
-9.000000	-8.000000	231.617
10	-8.000000	202.24
29	-8.000000	70.8103
-18.5	-7.500000	295.579
0.500000	-7.500000	261.727
19.5	-7.500000	77.5858
-28	-7.000000	32.7331
-9.000000	-7.000000	245.327
10	-7.000000	254.936
29	-7.000000	25.1354
-18.5	-6.500000	195.604
0.500000	-6.500000	290.252
19.5	-6.500000	250.896
-28	-6.000000	59.8571
-9.000000	-6.000000	192.93
10	-6.000000	247.281
29	-6.000000	28.3934
-18.5	-5.500000	200.987
0.500000	-5.500000	180.114
19.5	-5.500000	177.238
-28	-5.000000	79.3844
-9.000000	-5.000000	5.337045
10	-5.000000	189.016
29	-5.000000	96.1325
-18.5	-4.500000	211.578
0.500000	-4.500000	239.453
19.5	-4.500000	152.741
-28	-4.000000	60.5961
-9.000000	-4.000000	0.902826
10	-4.000000	66.2922
29	-4.000000	158.13
-18.5	-3.500000	224.946
0.500000	-3.500000	288.784
19.5	-3.500000	128.907
-28	-3.000000	54.4793
-9.000000	-3.000000	2.390090
10	-3.000000	256.129
29	-3.000000	200.665
-18.5	-2.500000	251.745
0.500000	-2.500000	258.485
19.5	-2.500000	136.384
-28	-2.000000	55.5723
-9.000000	-2.000000	47.4856
10	-2.000000	231.983
29	-2.000000	224.447
-18.5	-1.500000	217.602
0.500000	-1.500000	240.103
19.5	-1.500000	129.664
-28	-1.000000	62.4609
-9.000000	-1.000000	270.535
10	-1.000000	243.809
29	-1.000000	226.42
-18.5	-0.500000	254.67
0.500000	-0.500000	112.286
19.5	-0.500000	118.628
-28	0.000000	61.7381
-9.000000	0.000000	276.976
10	0.000000	267.093
29	0.000000	222.763
-18.5	0.500000	272.06
0.500000	0.500000	184.725
19.5	0.500000	124.554
-28	1.000000	77.9906
-9.000000	1.000000	220.947
10	1.000000	268.544
29	1.000000	225.19
-18.5	1.500000	301.555
0.500000	1.500000	195.243
19.5	1.500000	128.708
-28	2.000000	159.771
-9.000000	2.000000	177.429
10	2.000000	272.23
29	2.000000	241.727
-18.5	2.500000	269.544
0.500000	2.500000	169.179
19.5	2.500000	123.94
-28	3.000000	216.395
-9.000000	3.000000	151.607
10	3.000000	274.764
29	3.000000	218.06
-18.5	3.500000	301.787
0.500000	3.500000	159.538
19.5	3.500000	155.248
-28	4.000000	224.204
-9.000000	4.000000	121.278
10	4.000000	168.738
29	4.000000	208.831
-18.5	4.500000	266.401
0.500000	4.500000	256.232
19.5	4.500000	136.517
-28	5.000000	263.844
-9.000000	5.000000	201.66
10	5.000000	113.202
29	5.000000	185.991
-18.5	5.500000	247.513
0.500000	5.500000	188.105
19.5	5.500000	132.118
-28	6.000000	178.263
-9.000000	6.000000	223.436
10	6.000000	90.9831
29	6.000000	141.038
-18.5	6.500000	191.987
0.500000	6.500000	184.995
19.5	6.500000	182.682
-28	7.000000	207.923
-9.000000	7.000000	237.227
10	7.000000	78.5226
29	7.000000	164.328
-18.5	7.500000	160.83
0.500000	7.500000	196.085
19.5	7.500000	209.763
-28	8.000000	11.611
-9.000000	8.000000	187.171
10	8.000000	112.881
29	8.000000	155.422
-18.5	8.500000	231.159
0.500000	8.500000	225.571
19.5	8.500000	135.761
-28	9.000000	23.6196
-9.000000	9.000000	223.413
10	9.000000	202.199
29	9.000000	147.227
-18.5	9.500000	180.722
0.500000	9.500000	236.639
19.5	9.500000	204.896
-28	10	0.000000
-9.000000	10	217.123
10	10	177.262
29	10	159.566
-18.5	10.5	19.8859
0.500000	10.5	221.298
19.5	10.5	215.023
-28	11	8.083953
-9.000000	11	235.031
10	11	137.127
29	11	172.02
-18.5	11.5	46.0995
0.500000	11.5	231.536
19.5	11.5	189.369
-28	12	9.007342
-9.000000	12	253.521
10	12	93.403
29	12	137.59
-18.5	12.5	2.455814
0.500000	12.5	245.864
19.5	12.5	178.622
-28	13	0.000000
-9.000000	13	275.035
10	13	97.957
29	13	201.713
-18.5	13.5	21.3398
0.500000	13.5	276.478
19.5	13.5	188.454
-28	14	2.980170
-9.000000	14	270.335
10	14	233.994
29	14	171.806
-18.5	14.5	1.540964
0.500000	14.5	91.8583
19.5	14.5	225.505
-28	15	5.472658
-9.000000	15	201.899
10	15	261.028
29	15	177.965
-18.5	15.5	0.000000
0.500000	15.5	114.722
19.5	15.5	210.668
-28	16	0.000000
-9.000000	16	230.043
10	16	272.14
29	16	248.077
-18.5	16.5	0.000000
0.500000	16.5	14.0626
19.5	16.5	186.737
-28	17	0.547189
-9.000000	17	289.753
10	17	99.5814
29	17	229.776
-18.5	17.5	0.875746
0.500000	17.5	102.79
19.5	17.5	125.322
-28	18	2.344220
-9.000000	18	181.13
10	18	45.8777
29	18	58.7147
-18.5	18.5	0.000000
0.500000	18.5	84.4678
19.5	18.5	149.95
-28	19	34.9131
-9.000000	19	108.859
10	19	140.538
29	19	2.699436
-18.5	19.5	2.628226
0.500000	19.5	174.076
19.5	19.5	183.978
-28	20	231.777
-9.000000	20	25.2454
10	20	136.391
29	20	0.000000
38	20	2.849677