File: data/derived_data/raman/20170920_Gr-NH2_for_Radisurf/20170920 Gr-NH for Radisurf map 1/D pos.txt
#XList		#YList		#IList
-28	-22	1355.26
-9.000000	-22	1346.77
10	-22	1348.34
29	-22	1355.33
-18.5	-21.5	1349.17
0.500000	-21.5	1348.21
19.5	-21.5	1348.58
-28	-21	1341.48
-9.000000	-21	1349.37
10	-21	1349.03
29	-21	1348.37
-18.5	-20.5	1347.7
0.500000	-20.5	1361.03
19.5	-20.5	1348.25
-28	-20	1380
-9.000000	-20	1349.04
10	-20	1346.86
29	-20	1349.39
-18.5	-19.5	1346.37
0.500000	-19.5	1341.08
19.5	-19.5	1348.77
-28	-19	1380
-9.000000	-19	1349.8
10	-19	1346.45
29	-19	1349.45
-18.5	-18.5	1348.06
0.500000	-18.5	1334.01
19.5	-18.5	1347.54
-28	-18	1361.55
-9.000000	-18	1366.44
10	-18	1345.84
29	-18	1348.54
-18.5	-17.5	1350.72
0.500000	-17.5	1351.75
19.5	-17.5	1348.18
-28	-17	1349.75
-9.000000	-17	1365.09
10	-17	1347.82
29	-17	1350.78
-18.5	-16.5	1347.26
0.500000	-16.5	1352.64
19.5	-16.5	1349.03
-28	-16	1349.61
-9.000000	-16	1353.88
10	-16	1348.06
29	-16	1349.31
-18.5	-15.5	1347.15
0.500000	-15.5	1352.08
19.5	-15.5	1347.92
-28	-15	1348.13
-9.000000	-15	1347.79
10	-15	1348.53
29	-15	1348.85
-18.5	-14.5	1346.51
0.500000	-14.5	1349.97
19.5	-14.5	1351.38
-28	-14	1359.52
-9.000000	-14	1351.14
10	-14	1348.15
29	-14	1349.72
-18.5	-13.5	1344.61
0.500000	-13.5	1347.94
19.5	-13.5	1345.63
-28	-13	1346.13
-9.000000	-13	1347.51
10	-13	1350.69
29	-13	1347.65
-18.5	-12.5	1359.44
0.500000	-12.5	1348.42
19.5	-12.5	1360.36
-28	-12	1356.68
-9.000000	-12	1344.85
10	-12	1355.2
29	-12	1348.58
-18.5	-11.5	1345.47
0.500000	-11.5	1350.25
19.5	-11.5	1349.15
-28	-11	1358.79
-9.000000	-11	1345.58
10	-11	1347.99
29	-11	1358.08
-18.5	-10.5	1346.09
0.500000	-10.5	1349.17
19.5	-10.5	1349.95
-28	-10	1346.15
-9.000000	-10	1345.08
10	-10	1351.27
29	-10	1369.13
-18.5	-9.500000	1346.11
0.500000	-9.500000	1348.1
19.5	-9.500000	1350.08
-28	-9.000000	1347.2
-9.000000	-9.000000	1346.77
10	-9.000000	1347.13
29	-9.000000	1352.22
-18.5	-8.500000	1346.22
0.500000	-8.500000	1346.77
19.5	-8.500000	1349.41
-28	-8.000000	1355.69
-9.000000	-8.000000	1346.71
10	-8.000000	1345.96
29	-8.000000	1348.33
-18.5	-7.500000	1347.01
0.500000	-7.500000	1347.66
19.5	-7.500000	1355.99
-28	-7.000000	1353.12
-9.000000	-7.000000	1347.2
10	-7.000000	1348.42
29	-7.000000	1350.43
-18.5	-6.500000	1347.13
0.500000	-6.500000	1347.34
19.5	-6.500000	1347.24
-28	-6.000000	1351.03
-9.000000	-6.000000	1343.81
10	-6.000000	1349.05
29	-6.000000	1351.84
-18.5	-5.500000	1348.7
0.500000	-5.500000	1350.77
19.5	-5.500000	1348.69
-28	-5.000000	1350.54
-9.000000	-5.000000	1369.83
10	-5.000000	1348.8
29	-5.000000	1351.93
-18.5	-4.500000	1348.84
0.500000	-4.500000	1349.55
19.5	-4.500000	1343.96
-28	-4.000000	1350.91
-9.000000	-4.000000	1354.17
10	-4.000000	1351.03
29	-4.000000	1347.62
-18.5	-3.500000	1348.02
0.500000	-3.500000	1348.9
19.5	-3.500000	1349.21
-28	-3.000000	1349.15
-9.000000	-3.000000	1343.42
10	-3.000000	1347.92
29	-3.000000	1349.45
-18.5	-2.500000	1350.1
0.500000	-2.500000	1348.46
19.5	-2.500000	1348.39
-28	-2.000000	1348.76
-9.000000	-2.000000	1355.23
10	-2.000000	1346.78
29	-2.000000	1347.88
-18.5	-1.500000	1348.89
0.500000	-1.500000	1348.71
19.5	-1.500000	1349.01
-28	-1.000000	1350.14
-9.000000	-1.000000	1345.76
10	-1.000000	1346.61
29	-1.000000	1347.65
-18.5	-0.500000	1347.12
0.500000	-0.500000	1352.73
19.5	-0.500000	1348.16
-28	0.000000	1350.95
-9.000000	0.000000	1347.36
10	0.000000	1346.33
29	0.000000	1347.57
-18.5	0.500000	1348.27
0.500000	0.500000	1346.88
19.5	0.500000	1348.44
-28	1.000000	1352.58
-9.000000	1.000000	1348.04
10	1.000000	1347.55
29	1.000000	1347.02
-18.5	1.500000	1349.46
0.500000	1.500000	1348.45
19.5	1.500000	1346.52
-28	2.000000	1351.27
-9.000000	2.000000	1348.92
10	2.000000	1348.1
29	2.000000	1347.56
-18.5	2.500000	1347.15
0.500000	2.500000	1350.17
19.5	2.500000	1348.44
-28	3.000000	1349.08
-9.000000	3.000000	1350.02
10	3.000000	1348.19
29	3.000000	1347.41
-18.5	3.500000	1348.18
0.500000	3.500000	1348.24
19.5	3.500000	1347.5
-28	4.000000	1349.67
-9.000000	4.000000	1349.27
10	4.000000	1349.94
29	4.000000	1347.64
-18.5	4.500000	1349.19
0.500000	4.500000	1350.22
19.5	4.500000	1348.36
-28	5.000000	1349.05
-9.000000	5.000000	1350.09
10	5.000000	1351.71
29	5.000000	1348.29
-18.5	5.500000	1350.22
0.500000	5.500000	1348.71
19.5	5.500000	1348.34
-28	6.000000	1348.71
-9.000000	6.000000	1348.4
10	6.000000	1350.05
29	6.000000	1348.33
-18.5	6.500000	1348.71
0.500000	6.500000	1350.08
19.5	6.500000	1348.04
-28	7.000000	1348.77
-9.000000	7.000000	1348.98
10	7.000000	1347.03
29	7.000000	1346.86
-18.5	7.500000	1349.14
0.500000	7.500000	1348.57
19.5	7.500000	1347.91
-28	8.000000	1356.11
-9.000000	8.000000	1349.13
10	8.000000	1349.66
29	8.000000	1345.16
-18.5	8.500000	1348.66
0.500000	8.500000	1347.89
19.5	8.500000	1348.02
-28	9.000000	1348.88
-9.000000	9.000000	1348.14
10	9.000000	1348.23
29	9.000000	1348.21
-18.5	9.500000	1347.78
0.500000	9.500000	1349.4
19.5	9.500000	1348.54
-28	10	1380
-9.000000	10	1347.94
10	10	1348.82
29	10	1349.01
-18.5	10.5	1353.23
0.500000	10.5	1350.56
19.5	10.5	1348.01
-28	11	1343.92
-9.000000	11	1348.86
10	11	1349.76
29	11	1348.67
-18.5	11.5	1352.58
0.500000	11.5	1349.59
19.5	11.5	1349.26
-28	12	1364.14
-9.000000	12	1347.6
10	12	1350.91
29	12	1348.15
-18.5	12.5	1367.1
0.500000	12.5	1349.47
19.5	12.5	1349.72
-28	13	1353.97
-9.000000	13	1348.97
10	13	1351.02
29	13	1346.69
-18.5	13.5	1378.53
0.500000	13.5	1348.52
19.5	13.5	1348.43
-28	14	1320.4
-9.000000	14	1348.76
10	14	1347.37
29	14	1348.48
-18.5	14.5	1327.44
0.500000	14.5	1348.37
19.5	14.5	1350.33
-28	15	1356.86
-9.000000	15	1348.79
10	15	1347.34
29	15	1348.98
-18.5	15.5	1373.76
0.500000	15.5	1350.23
19.5	15.5	1348.11
-28	16	1376.59
-9.000000	16	1347.93
10	16	1348.88
29	16	1346.09
-18.5	16.5	1380
0.500000	16.5	1364.5
19.5	16.5	1349.14
-28	17	1363.4
-9.000000	17	1348.47
10	17	1349.69
29	17	1345.18
-18.5	17.5	1380
0.500000	17.5	1352.19
19.5	17.5	1349.93
-28	18	1376.52
-9.000000	18	1349.7
10	18	1356.42
29	18	1349.52
-18.5	18.5	1380
0.500000	18.5	1352.57
19.5	18.5	1350.04
-28	19	1357.47
-9.000000	19	1348.1
10	19	1347.47
29	19	1341.36
-18.5	19.5	1329.77
0.500000	19.5	1348.93
19.5	19.5	1349.17
-28	20	1348.37
-9.000000	20	1357.29
10	20	1350.31
29	20	1320
38	20	1340.71