File: data/derived_data/raman/20170920_Gr-NH2_for_Radisurf/20170920 Gr-NH for Radisurf map 1/DDp int.txt
#XList		#YList		#IList
-28	-22	1.447353
-9.000000	-22	82.3204
10	-22	72.1348
29	-22	5.240160
-18.5	-21.5	40.2629
0.500000	-21.5	39.0436
19.5	-21.5	79.4082
-28	-21	2.207878
-9.000000	-21	61.3714
10	-21	49.9428
29	-21	12.3759
-18.5	-20.5	54.6226
0.500000	-20.5	5.763625
19.5	-20.5	59.6115
-28	-20	0.000000
-9.000000	-20	39.9228
10	-20	45.2915
29	-20	38.2323
-18.5	-19.5	50.0206
0.500000	-19.5	1.045661
19.5	-19.5	62.8252
-28	-19	1.542654
-9.000000	-19	15.8807
10	-19	47.4855
29	-19	53.0068
-18.5	-18.5	29.169
0.500000	-18.5	1.810164
19.5	-18.5	61.6466
-28	-18	1.621891
-9.000000	-18	2.193320
10	-18	50.6015
29	-18	41.6857
-18.5	-17.5	21.6824
0.500000	-17.5	11.4911
19.5	-17.5	49.6604
-28	-17	12.7507
-9.000000	-17	3.583725
10	-17	64.8642
29	-17	40.5706
-18.5	-16.5	60.1846
0.500000	-16.5	16.1115
19.5	-16.5	40.3335
-28	-16	16.4587
-9.000000	-16	38.4171
10	-16	45.5108
29	-16	13.2572
-18.5	-15.5	59.1578
0.500000	-15.5	13.9731
19.5	-15.5	25.861
-28	-15	10.7291
-9.000000	-15	57.7944
10	-15	39.1807
29	-15	14.6645
-18.5	-14.5	56.5724
0.500000	-14.5	28.4202
19.5	-14.5	9.048282
-28	-14	0.000000
-9.000000	-14	68.5086
10	-14	23.4475
29	-14	31.6309
-18.5	-13.5	30.6524
0.500000	-13.5	42.2959
19.5	-13.5	0.160618
-28	-13	1.334130
-9.000000	-13	57.4443
10	-13	12.5528
29	-13	40.0707
-18.5	-12.5	23.1375
0.500000	-12.5	37.1338
19.5	-12.5	4.974834
-28	-12	3.348167
-9.000000	-12	56.6431
10	-12	2.086375
29	-12	45.941
-18.5	-11.5	61.1841
0.500000	-11.5	26.8614
19.5	-11.5	17.3297
-28	-11	2.500699
-9.000000	-11	68.3
10	-11	20.9114
29	-11	6.180886
-18.5	-10.5	62.4715
0.500000	-10.5	42.5927
19.5	-10.5	41.0326
-28	-10	33.5663
-9.000000	-10	67.6632
10	-10	21.5066
29	-10	0.000000
-18.5	-9.500000	66.485
0.500000	-9.500000	42.1615
19.5	-9.500000	14.7516
-28	-9.000000	35.7598
-9.000000	-9.000000	66.479
10	-9.000000	34.5943
29	-9.000000	6.323061
-18.5	-8.500000	73.1955
0.500000	-8.500000	65.082
19.5	-8.500000	23.5324
-28	-8.000000	7.820830
-9.000000	-8.000000	57.6544
10	-8.000000	39.7001
29	-8.000000	12.3883
-18.5	-7.500000	77.8221
0.500000	-7.500000	61.0197
19.5	-7.500000	28.5891
-28	-7.000000	11.6015
-9.000000	-7.000000	57.2786
10	-7.000000	33.9753
29	-7.000000	8.892663
-18.5	-6.500000	54.717
0.500000	-6.500000	51.4823
19.5	-6.500000	47.5269
-28	-6.000000	22.3231
-9.000000	-6.000000	28.2443
10	-6.000000	41.377
29	-6.000000	7.413564
-18.5	-5.500000	55.3909
0.500000	-5.500000	36.9489
19.5	-5.500000	43.3172
-28	-5.000000	29.1425
-9.000000	-5.000000	3.365362
10	-5.000000	40.9449
29	-5.000000	22.2142
-18.5	-4.500000	61.0777
0.500000	-4.500000	48.4
19.5	-4.500000	30.3417
-28	-4.000000	20.282
-9.000000	-4.000000	11.221
10	-4.000000	20.2991
29	-4.000000	31.8313
-18.5	-3.500000	40.545
0.500000	-3.500000	54.8693
19.5	-3.500000	31.2115
-28	-3.000000	15.2345
-9.000000	-3.000000	32.6611
10	-3.000000	68.3469
29	-3.000000	46.1136
-18.5	-2.500000	43.3188
0.500000	-2.500000	49.8179
19.5	-2.500000	35.8752
-28	-2.000000	19.2141
-9.000000	-2.000000	17.7039
10	-2.000000	54.2041
29	-2.000000	48.8141
-18.5	-1.500000	42.7986
0.500000	-1.500000	34.617
19.5	-1.500000	29.8968
-28	-1.000000	20.2342
-9.000000	-1.000000	42.5829
10	-1.000000	54.1852
29	-1.000000	54.4365
-18.5	-0.500000	56.1482
0.500000	-0.500000	16.4096
19.5	-0.500000	29.9676
-28	0.000000	22.9615
-9.000000	0.000000	56.1488
10	0.000000	55.0506
29	0.000000	47.3002
-18.5	0.500000	68.339
0.500000	0.500000	40.5276
19.5	0.500000	34.2992
-28	1.000000	32.4794
-9.000000	1.000000	52.9037
10	1.000000	58.3599
29	1.000000	54.6531
-18.5	1.500000	64.1431
0.500000	1.500000	49.4024
19.5	1.500000	30.3324
-28	2.000000	58.2022
-9.000000	2.000000	40.4178
10	2.000000	64.4396
29	2.000000	53.3565
-18.5	2.500000	56.8291
0.500000	2.500000	53.3305
19.5	2.500000	32.2477
-28	3.000000	74.9985
-9.000000	3.000000	40.9812
10	3.000000	60.1241
29	3.000000	49.8448
-18.5	3.500000	49.4381
0.500000	3.500000	42.2319
19.5	3.500000	33.4345
-28	4.000000	67.3322
-9.000000	4.000000	37.7253
10	4.000000	51.5075
29	4.000000	47.3167
-18.5	4.500000	45.2161
0.500000	4.500000	69.4116
19.5	4.500000	37.2448
-28	5.000000	67.5536
-9.000000	5.000000	62.7412
10	5.000000	38.938
29	5.000000	46.9844
-18.5	5.500000	63.9069
0.500000	5.500000	54.2876
19.5	5.500000	35.5599
-28	6.000000	51.1243
-9.000000	6.000000	67.5242
10	6.000000	23.6669
29	6.000000	34.4048
-18.5	6.500000	48.1505
0.500000	6.500000	54.2849
19.5	6.500000	41.7356
-28	7.000000	36.1046
-9.000000	7.000000	76.5312
10	7.000000	20.3871
29	7.000000	39.4306
-18.5	7.500000	46.8356
0.500000	7.500000	56.0012
19.5	7.500000	48.0445
-28	8.000000	2.980581
-9.000000	8.000000	56.7801
10	8.000000	34.0299
29	8.000000	31.4564
-18.5	8.500000	55.0472
0.500000	8.500000	48.5016
19.5	8.500000	28.6444
-28	9.000000	0.000000
-9.000000	9.000000	75.1767
10	9.000000	52.2404
29	9.000000	35.8016
-18.5	9.500000	30.5873
0.500000	9.500000	56.3189
19.5	9.500000	43.7286
-28	10	42.2143
-9.000000	10	67.9544
10	10	45.7516
29	10	43.7637
-18.5	10.5	5.434970
0.500000	10.5	42.1764
19.5	10.5	39.3432
-28	11	2.661501
-9.000000	11	72.6998
10	11	36.0067
29	11	51.3473
-18.5	11.5	12.0818
0.500000	11.5	38.0699
19.5	11.5	50.3234
-28	12	5.091937
-9.000000	12	72.5086
10	12	25.3083
29	12	38.446
-18.5	12.5	1.357185
0.500000	12.5	49.9308
19.5	12.5	52.5069
-28	13	0.405121
-9.000000	13	80.0624
10	13	25.5606
29	13	47.3353
-18.5	13.5	5.544547
0.500000	13.5	54.2116
19.5	13.5	43.3939
-28	14	0.012545
-9.000000	14	63.7307
10	14	57.9637
29	14	45.2161
-18.5	14.5	0.000000
0.500000	14.5	16.2223
19.5	14.5	70.0182
-28	15	0.000000
-9.000000	15	37.8483
10	15	51.7212
29	15	52.412
-18.5	15.5	0.000000
0.500000	15.5	15.0224
19.5	15.5	52.4674
-28	16	1.209051
-9.000000	16	46.9379
10	16	52.1015
29	16	54.6406
-18.5	16.5	0.441081
0.500000	16.5	6.595050
19.5	16.5	42.1432
-28	17	1.381428
-9.000000	17	49.8404
10	17	15.7734
29	17	29.9722
-18.5	17.5	6.497144
0.500000	17.5	25.8425
19.5	17.5	30.6442
-28	18	1.375120
-9.000000	18	38.0573
10	18	12.7008
29	18	6.771725
-18.5	18.5	0.000000
0.500000	18.5	22.9671
19.5	18.5	36.848
-28	19	11.3011
-9.000000	19	18.9713
10	19	20.0951
29	19	0.000000
-18.5	19.5	8.786780
0.500000	19.5	41.1258
19.5	19.5	49.0394
-28	20	62.419
-9.000000	20	8.388859
10	20	31.7104
29	20	12.8666
38	20	5.227040