File: data/derived_data/raman/20170920_Gr-NH2_for_Radisurf/20170920 Gr-NH for Radisurf map 1/DDp FWHM.txt
#XList		#YList		#IList
-28	-22	0.639823
-9.000000	-22	183.327
10	-22	172.736
29	-22	94.3049
-18.5	-21.5	176.27
0.500000	-21.5	183.621
19.5	-21.5	191.147
-28	-21	1.554381
-9.000000	-21	206.441
10	-21	167.732
29	-21	154.931
-18.5	-20.5	196.225
0.500000	-20.5	130.056
19.5	-20.5	191.127
-28	-20	0.639823
-9.000000	-20	163.762
10	-20	184.471
29	-20	185.39
-18.5	-19.5	214.685
0.500000	-19.5	1.845306
19.5	-19.5	180.566
-28	-19	152.369
-9.000000	-19	179.321
10	-19	145.866
29	-19	155.18
-18.5	-18.5	158.141
0.500000	-18.5	75.0048
19.5	-18.5	187.814
-28	-18	53.3065
-9.000000	-18	537.789
10	-18	167.085
29	-18	172.154
-18.5	-17.5	456.675
0.500000	-17.5	143.691
19.5	-17.5	164.93
-28	-17	130.841
-9.000000	-17	115.84
10	-17	183.947
29	-17	161.352
-18.5	-16.5	167.884
0.500000	-16.5	132.93
19.5	-16.5	154.317
-28	-16	107.097
-9.000000	-16	172.6
10	-16	213.202
29	-16	133.394
-18.5	-15.5	162.64
0.500000	-15.5	134.416
19.5	-15.5	127.977
-28	-15	79.9095
-9.000000	-15	161.817
10	-15	153.513
29	-15	164.525
-18.5	-14.5	218.28
0.500000	-14.5	135.169
19.5	-14.5	593.313
-28	-14	0.639823
-9.000000	-14	168.166
10	-14	116.595
29	-14	112.203
-18.5	-13.5	199.159
0.500000	-13.5	147.998
19.5	-13.5	165.73
-28	-13	172.463
-9.000000	-13	171.714
10	-13	161.088
29	-13	146.449
-18.5	-12.5	140.675
0.500000	-12.5	151.818
19.5	-12.5	52.7547
-28	-12	62.5045
-9.000000	-12	197.165
10	-12	178.587
29	-12	172.663
-18.5	-11.5	193.295
0.500000	-11.5	140.401
19.5	-11.5	152.402
-28	-11	119.68
-9.000000	-11	201.385
10	-11	131.213
29	-11	59.8966
-18.5	-10.5	190.232
0.500000	-10.5	209.822
19.5	-10.5	192.231
-28	-10	156.826
-9.000000	-10	206.068
10	-10	156.499
29	-10	16.1507
-18.5	-9.500000	180.279
0.500000	-9.500000	152.168
19.5	-9.500000	105.47
-28	-9.000000	171.596
-9.000000	-9.000000	185.14
10	-9.000000	146.039
29	-9.000000	155.435
-18.5	-8.500000	193.265
0.500000	-8.500000	176.264
19.5	-8.500000	152.47
-28	-8.000000	194.182
-9.000000	-8.000000	162.358
10	-8.000000	150.62
29	-8.000000	99.7853
-18.5	-7.500000	186.829
0.500000	-7.500000	148.973
19.5	-7.500000	185.089
-28	-7.000000	235.837
-9.000000	-7.000000	166.979
10	-7.000000	138.022
29	-7.000000	91.4572
-18.5	-6.500000	174.751
0.500000	-6.500000	162.233
19.5	-6.500000	199.757
-28	-6.000000	225.345
-9.000000	-6.000000	151.959
10	-6.000000	176.607
29	-6.000000	286.126
-18.5	-5.500000	175.416
0.500000	-5.500000	195.48
19.5	-5.500000	175.031
-28	-5.000000	160.056
-9.000000	-5.000000	2.130603
10	-5.000000	198.651
29	-5.000000	152.805
-18.5	-4.500000	182.82
0.500000	-4.500000	167.26
19.5	-4.500000	137.175
-28	-4.000000	182.023
-9.000000	-4.000000	1.976887
10	-4.000000	142.571
29	-4.000000	192.521
-18.5	-3.500000	128.903
0.500000	-3.500000	164.923
19.5	-3.500000	163.298
-28	-3.000000	135.474
-9.000000	-3.000000	0.672317
10	-3.000000	166.464
29	-3.000000	168.07
-18.5	-2.500000	155.7
0.500000	-2.500000	156.552
19.5	-2.500000	203.179
-28	-2.000000	179.815
-9.000000	-2.000000	161.884
10	-2.000000	178.703
29	-2.000000	176.761
-18.5	-1.500000	155.475
0.500000	-1.500000	148.261
19.5	-1.500000	157.096
-28	-1.000000	184.024
-9.000000	-1.000000	156.928
10	-1.000000	189.986
29	-1.000000	166.736
-18.5	-0.500000	159.882
0.500000	-0.500000	160.34
19.5	-0.500000	146.876
-28	0.000000	154.682
-9.000000	0.000000	163.857
10	0.000000	172.82
29	0.000000	187.448
-18.5	0.500000	172.922
0.500000	0.500000	158.024
19.5	0.500000	151.809
-28	1.000000	187.766
-9.000000	1.000000	179.361
10	1.000000	185.748
29	1.000000	194.302
-18.5	1.500000	163.414
0.500000	1.500000	182.664
19.5	1.500000	169.241
-28	2.000000	190.194
-9.000000	2.000000	143.681
10	2.000000	185.264
29	2.000000	176.426
-18.5	2.500000	165.785
0.500000	2.500000	186.444
19.5	2.500000	167.559
-28	3.000000	163.451
-9.000000	3.000000	155.359
10	3.000000	203.113
29	3.000000	163.142
-18.5	3.500000	131.706
0.500000	3.500000	173.685
19.5	3.500000	194.663
-28	4.000000	180.111
-9.000000	4.000000	204.972
10	4.000000	182.976
29	4.000000	149.85
-18.5	4.500000	160.804
0.500000	4.500000	194.653
19.5	4.500000	163.654
-28	5.000000	175.92
-9.000000	5.000000	207.208
10	5.000000	195.91
29	5.000000	156.797
-18.5	5.500000	191.829
0.500000	5.500000	171.604
19.5	5.500000	176.899
-28	6.000000	168.445
-9.000000	6.000000	176.106
10	6.000000	144.125
29	6.000000	172.209
-18.5	6.500000	161.462
0.500000	6.500000	192.383
19.5	6.500000	150.015
-28	7.000000	149.818
-9.000000	7.000000	167.814
10	7.000000	109.922
29	7.000000	152.512
-18.5	7.500000	199.851
0.500000	7.500000	168.699
19.5	7.500000	139.19
-28	8.000000	186.985
-9.000000	8.000000	184.161
10	8.000000	128.367
29	8.000000	150.693
-18.5	8.500000	167.398
0.500000	8.500000	184.271
19.5	8.500000	137.882
-28	9.000000	827.859
-9.000000	9.000000	199.464
10	9.000000	153.132
29	9.000000	172.74
-18.5	9.500000	130.826
0.500000	9.500000	175.892
19.5	9.500000	188.196
-28	10	0.896578
-9.000000	10	174.615
10	10	196.758
29	10	180.822
-18.5	10.5	69.154
0.500000	10.5	168.231
19.5	10.5	167.986
-28	11	79.1228
-9.000000	11	178.249
10	11	202.525
29	11	193.856
-18.5	11.5	122.122
0.500000	11.5	118.132
19.5	11.5	165.213
-28	12	53.9558
-9.000000	12	197.005
10	12	173.629
29	12	151.371
-18.5	12.5	165.528
0.500000	12.5	171.16
19.5	12.5	160.901
-28	13	318.906
-9.000000	13	173.779
10	13	117.619
29	13	182.005
-18.5	13.5	0.967935
0.500000	13.5	173.95
19.5	13.5	165.369
-28	14	90.8216
-9.000000	14	142.284
10	14	176.535
29	14	163.25
-18.5	14.5	160.299
0.500000	14.5	117.78
19.5	14.5	189.674
-28	15	0.639823
-9.000000	15	158.549
10	15	178.438
29	15	156.358
-18.5	15.5	0.639823
0.500000	15.5	114.832
19.5	15.5	175.856
-28	16	26.0316
-9.000000	16	174.292
10	16	185.791
29	16	177.728
-18.5	16.5	3.056757
0.500000	16.5	54.7577
19.5	16.5	159.4
-28	17	61.1956
-9.000000	17	172.668
10	17	90.8805
29	17	155.601
-18.5	17.5	5.493858
0.500000	17.5	165.174
19.5	17.5	158.419
-28	18	315.366
-9.000000	18	141.03
10	18	147.062
29	18	137.671
-18.5	18.5	129.055
0.500000	18.5	156.766
19.5	18.5	152.248
-28	19	204.495
-9.000000	19	119.423
10	19	122.192
29	19	0.639823
-18.5	19.5	0.642266
0.500000	19.5	155.528
19.5	19.5	182.9
-28	20	218.295
-9.000000	20	171.293
10	20	169.706
29	20	0.639823
38	20	0.639823