File: data/derived_data/raman/20170920_Gr-NH2_for_Radisurf/20170920 Gr-NH for Radisurf map 1/DDp pos.txt
#XList		#YList		#IList
-28	-22	2907.77
-9.000000	-22	2920.22
10	-22	2922.4
29	-22	2923.02
-18.5	-21.5	2924.24
0.500000	-21.5	2926.51
19.5	-21.5	2921.86
-28	-21	2900
-9.000000	-21	2924.45
10	-21	2930.24
29	-21	2938.49
-18.5	-20.5	2924.94
0.500000	-20.5	2905.51
19.5	-20.5	2922.34
-28	-20	2900.7
-9.000000	-20	2914.48
10	-20	2920.94
29	-20	2936.51
-18.5	-19.5	2920.34
0.500000	-19.5	2943.92
19.5	-19.5	2924.84
-28	-19	2901.24
-9.000000	-19	2925.59
10	-19	2923.85
29	-19	2934.69
-18.5	-18.5	2929.54
0.500000	-18.5	2920.1
19.5	-18.5	2918.05
-28	-18	2900.17
-9.000000	-18	2900
10	-18	2918.33
29	-18	2930.88
-18.5	-17.5	2932.8
0.500000	-17.5	2942.71
19.5	-17.5	2914.41
-28	-17	2942.53
-9.000000	-17	2900
10	-17	2917.3
29	-17	2929.67
-18.5	-16.5	2930.51
0.500000	-16.5	2932.95
19.5	-16.5	2922.1
-28	-16	2944.15
-9.000000	-16	2934.45
10	-16	2916.44
29	-16	2941.18
-18.5	-15.5	2921.46
0.500000	-15.5	2947.67
19.5	-15.5	2930.24
-28	-15	2942.46
-9.000000	-15	2917.28
10	-15	2915.85
29	-15	2945.05
-18.5	-14.5	2923.47
0.500000	-14.5	2933.59
19.5	-14.5	2900
-28	-14	2900
-9.000000	-14	2930.55
10	-14	2921.89
29	-14	2925
-18.5	-13.5	2917.36
0.500000	-13.5	2924.61
19.5	-13.5	2949.01
-28	-13	2900
-9.000000	-13	2917.83
10	-13	2938.11
29	-13	2933.62
-18.5	-12.5	2929.95
0.500000	-12.5	2927.68
19.5	-12.5	2931.4
-28	-12	2960.49
-9.000000	-12	2915.35
10	-12	2907.78
29	-12	2927.91
-18.5	-11.5	2916.81
0.500000	-11.5	2931.48
19.5	-11.5	2924.17
-28	-11	2933.67
-9.000000	-11	2916.53
10	-11	2937.78
29	-11	2953.14
-18.5	-10.5	2916.77
0.500000	-10.5	2924.88
19.5	-10.5	2937.24
-28	-10	2927.54
-9.000000	-10	2919.9
10	-10	2930.26
29	-10	2935.61
-18.5	-9.500000	2914.38
0.500000	-9.500000	2928.64
19.5	-9.500000	2941.7
-28	-9.000000	2927.3
-9.000000	-9.000000	2918.92
10	-9.000000	2927.4
29	-9.000000	2933.08
-18.5	-8.500000	2914.02
0.500000	-8.500000	2924.42
19.5	-8.500000	2938.6
-28	-8.000000	2918.16
-9.000000	-8.000000	2920.82
10	-8.000000	2932.46
29	-8.000000	2947.36
-18.5	-7.500000	2926.58
0.500000	-7.500000	2923.39
19.5	-7.500000	2933.23
-28	-7.000000	2942.77
-9.000000	-7.000000	2924.45
10	-7.000000	2926
29	-7.000000	2943.04
-18.5	-6.500000	2924.01
0.500000	-6.500000	2921.61
19.5	-6.500000	2922.64
-28	-6.000000	2941.69
-9.000000	-6.000000	2918.09
10	-6.000000	2927.56
29	-6.000000	2975.79
-18.5	-5.500000	2923.58
0.500000	-5.500000	2935.55
19.5	-5.500000	2927.66
-28	-5.000000	2927.49
-9.000000	-5.000000	2900
10	-5.000000	2932.52
29	-5.000000	2932.21
-18.5	-4.500000	2932.26
0.500000	-4.500000	2925.14
19.5	-4.500000	2923.39
-28	-4.000000	2925.41
-9.000000	-4.000000	2954.71
10	-4.000000	2932.34
29	-4.000000	2935.4
-18.5	-3.500000	2917.81
0.500000	-3.500000	2924.13
19.5	-3.500000	2921.38
-28	-3.000000	2938.63
-9.000000	-3.000000	2983.17
10	-3.000000	2931.24
29	-3.000000	2923.79
-18.5	-2.500000	2925.64
0.500000	-2.500000	2927.66
19.5	-2.500000	2928.03
-28	-2.000000	2932
-9.000000	-2.000000	2937.38
10	-2.000000	2918.82
29	-2.000000	2923.67
-18.5	-1.500000	2930.23
0.500000	-1.500000	2924.79
19.5	-1.500000	2927.6
-28	-1.000000	2931.89
-9.000000	-1.000000	2919.87
10	-1.000000	2914.47
29	-1.000000	2924.18
-18.5	-0.500000	2921.32
0.500000	-0.500000	2923.07
19.5	-0.500000	2928.78
-28	0.000000	2926.55
-9.000000	0.000000	2915.42
10	0.000000	2921.64
29	0.000000	2921.29
-18.5	0.500000	2927.72
0.500000	0.500000	2911.4
19.5	0.500000	2930
-28	1.000000	2933.07
-9.000000	1.000000	2924.63
10	1.000000	2925.89
29	1.000000	2918.91
-18.5	1.500000	2925.09
0.500000	1.500000	2925.22
19.5	1.500000	2925.41
-28	2.000000	2933.79
-9.000000	2.000000	2933.88
10	2.000000	2922.13
29	2.000000	2923.05
-18.5	2.500000	2919.96
0.500000	2.500000	2933.38
19.5	2.500000	2930.77
-28	3.000000	2937.12
-9.000000	3.000000	2932.3
10	3.000000	2926.58
29	3.000000	2923.63
-18.5	3.500000	2921.23
0.500000	3.500000	2926.8
19.5	3.500000	2932.89
-28	4.000000	2930.84
-9.000000	4.000000	2926.75
10	4.000000	2925.7
29	4.000000	2926.88
-18.5	4.500000	2927.93
0.500000	4.500000	2925.77
19.5	4.500000	2928.78
-28	5.000000	2927.84
-9.000000	5.000000	2928.42
10	5.000000	2933.82
29	5.000000	2924.84
-18.5	5.500000	2930.89
0.500000	5.500000	2927.11
19.5	5.500000	2926.02
-28	6.000000	2935.34
-9.000000	6.000000	2930.69
10	6.000000	2934.97
29	6.000000	2927.21
-18.5	6.500000	2931.76
0.500000	6.500000	2925.05
19.5	6.500000	2924.26
-28	7.000000	2927.07
-9.000000	7.000000	2929.39
10	7.000000	2935.24
29	7.000000	2928.62
-18.5	7.500000	2932.54
0.500000	7.500000	2930.94
19.5	7.500000	2924.46
-28	8.000000	2948.7
-9.000000	8.000000	2929.47
10	8.000000	2928.7
29	8.000000	2917.41
-18.5	8.500000	2922.95
0.500000	8.500000	2918.87
19.5	8.500000	2928.26
-28	9.000000	2900
-9.000000	9.000000	2931.06
10	9.000000	2929
29	9.000000	2931.72
-18.5	9.500000	2922.98
0.500000	9.500000	2926.04
19.5	9.500000	2919.21
-28	10	2946.41
-9.000000	10	2925.32
10	10	2932.66
29	10	2931.85
-18.5	10.5	2921.1
0.500000	10.5	2927.02
19.5	10.5	2919.12
-28	11	2914.15
-9.000000	11	2932.47
10	11	2934.77
29	11	2929.58
-18.5	11.5	2942.16
0.500000	11.5	2927.42
19.5	11.5	2936.21
-28	12	2901.95
-9.000000	12	2930.43
10	12	2940.24
29	12	2924.53
-18.5	12.5	2900
0.500000	12.5	2927.38
19.5	12.5	2929.63
-28	13	2900
-9.000000	13	2924.75
10	13	2939.95
29	13	2926.04
-18.5	13.5	2909.2
0.500000	13.5	2919.92
19.5	13.5	2927.59
-28	14	2903.98
-9.000000	14	2924.85
10	14	2928.28
29	14	2924.72
-18.5	14.5	2916.27
0.500000	14.5	2927.59
19.5	14.5	2928.03
-28	15	2911.07
-9.000000	15	2929.92
10	15	2931.93
29	15	2929.96
-18.5	15.5	2915.21
0.500000	15.5	2919.15
19.5	15.5	2926.07
-28	16	2905.69
-9.000000	16	2917.83
10	16	2930.37
29	16	2922.14
-18.5	16.5	2930.09
0.500000	16.5	2941.13
19.5	16.5	2929.46
-28	17	2913.46
-9.000000	17	2925.05
10	17	2941.09
29	17	2916.08
-18.5	17.5	2913.44
0.500000	17.5	2932.23
19.5	17.5	2928.2
-28	18	2914.89
-9.000000	18	2935.82
10	18	2941.43
29	18	2941.43
-18.5	18.5	2985.89
0.500000	18.5	2924.91
19.5	18.5	2930.87
-28	19	2936.51
-9.000000	19	2934.98
10	19	2925.58
29	19	2904.24
-18.5	19.5	2912.83
0.500000	19.5	2927.69
19.5	19.5	2933.54
-28	20	2927.04
-9.000000	20	2935.07
10	20	2932.41
29	20	2900.65
38	20	2916.46