File: data/derived_data/raman/20170920_Gr-NH2_for_Radisurf/20170920 Gr-NH for Radisurf map 1/Dp FWHM.txt
#XList		#YList		#IList
-28	-22	0.639823
-9.000000	-22	26.8526
10	-22	18.3066
29	-22	151.767
-18.5	-21.5	15.5413
0.500000	-21.5	18.8109
19.5	-21.5	17.8808
-28	-21	0.936899
-9.000000	-21	21.8791
10	-21	18.5963
29	-21	79.5472
-18.5	-20.5	19.7694
0.500000	-20.5	18.8715
19.5	-20.5	13.2609
-28	-20	0.961882
-9.000000	-20	29.3037
10	-20	16.9131
29	-20	32.5076
-18.5	-19.5	21.2406
0.500000	-19.5	0.683536
19.5	-19.5	17.4532
-28	-19	0.639823
-9.000000	-19	21.0886
10	-19	23.6266
29	-19	29.7129
-18.5	-18.5	26.0447
0.500000	-18.5	0.890623
19.5	-18.5	18.8229
-28	-18	4.055911
-9.000000	-18	0.639823
10	-18	18.975
29	-18	24.3713
-18.5	-17.5	30.909
0.500000	-17.5	19.3585
19.5	-17.5	19.9692
-28	-17	31.5789
-9.000000	-17	0.639823
10	-17	21.9008
29	-17	16.0215
-18.5	-16.5	17.4097
0.500000	-16.5	30.8074
19.5	-16.5	13.4089
-28	-16	27.3262
-9.000000	-16	23.1884
10	-16	19.1394
29	-16	37.3415
-18.5	-15.5	20.4387
0.500000	-15.5	70.6977
19.5	-15.5	16.0083
-28	-15	18.8627
-9.000000	-15	15.9197
10	-15	18.7398
29	-15	24.1861
-18.5	-14.5	17.7697
0.500000	-14.5	31.3992
19.5	-14.5	2.064465
-28	-14	0.639823
-9.000000	-14	36.3255
10	-14	22.5942
29	-14	30.4106
-18.5	-13.5	73.8461
0.500000	-13.5	19.2039
19.5	-13.5	12.2331
-28	-13	21.9943
-9.000000	-13	29.6795
10	-13	13.8686
29	-13	26.7069
-18.5	-12.5	34.0021
0.500000	-12.5	19.785
19.5	-12.5	30.7992
-28	-12	14.437
-9.000000	-12	21.5211
10	-12	7.231197
29	-12	23.6301
-18.5	-11.5	24.7185
0.500000	-11.5	14.6764
19.5	-11.5	13.3497
-28	-11	0.639823
-9.000000	-11	20.8377
10	-11	39.5521
29	-11	3.954859
-18.5	-10.5	23.7996
0.500000	-10.5	19.1895
19.5	-10.5	25.7747
-28	-10	13.3599
-9.000000	-10	26.3246
10	-10	29.3241
29	-10	0.639823
-18.5	-9.500000	23.3385
0.500000	-9.500000	12.1721
19.5	-9.500000	47.7642
-28	-9.000000	22.9918
-9.000000	-9.000000	23.919
10	-9.000000	29.0584
29	-9.000000	18.6309
-18.5	-8.500000	28.5378
0.500000	-8.500000	16.6984
19.5	-8.500000	69.2261
-28	-8.000000	11.2757
-9.000000	-8.000000	20.6921
10	-8.000000	26.9368
29	-8.000000	85.2813
-18.5	-7.500000	24.4078
0.500000	-7.500000	12.9797
19.5	-7.500000	27.2137
-28	-7.000000	15.7667
-9.000000	-7.000000	8.009541
10	-7.000000	13.2467
29	-7.000000	18.0337
-18.5	-6.500000	20.4868
0.500000	-6.500000	16.3156
19.5	-6.500000	19.0927
-28	-6.000000	19.9819
-9.000000	-6.000000	18.7416
10	-6.000000	15.2529
29	-6.000000	31.4298
-18.5	-5.500000	17.3143
0.500000	-5.500000	19.7878
19.5	-5.500000	13.5703
-28	-5.000000	18.2976
-9.000000	-5.000000	15.2275
10	-5.000000	16.7777
29	-5.000000	13.8147
-18.5	-4.500000	14.1694
0.500000	-4.500000	21.0491
19.5	-4.500000	11.2742
-28	-4.000000	9.724683
-9.000000	-4.000000	0.639823
10	-4.000000	31.1622
29	-4.000000	61.7373
-18.5	-3.500000	12.1818
0.500000	-3.500000	21.3935
19.5	-3.500000	13.6448
-28	-3.000000	22.1853
-9.000000	-3.000000	0.639823
10	-3.000000	19.0878
29	-3.000000	17.8
-18.5	-2.500000	12.0051
0.500000	-2.500000	18.2536
19.5	-2.500000	15.8576
-28	-2.000000	23.9201
-9.000000	-2.000000	36.8314
10	-2.000000	23.4425
29	-2.000000	11.4299
-18.5	-1.500000	16.3334
0.500000	-1.500000	16.7948
19.5	-1.500000	8.176903
-28	-1.000000	24.9572
-9.000000	-1.000000	20.6218
10	-1.000000	24.8675
29	-1.000000	15.7999
-18.5	-0.500000	18.8988
0.500000	-0.500000	23.6865
19.5	-0.500000	13.1673
-28	0.000000	17.8827
-9.000000	0.000000	29.3468
10	0.000000	18.9928
29	0.000000	15.919
-18.5	0.500000	18.5955
0.500000	0.500000	16.0162
19.5	0.500000	15.7653
-28	1.000000	16.5106
-9.000000	1.000000	15.682
10	1.000000	15.8135
29	1.000000	23.7687
-18.5	1.500000	17.5998
0.500000	1.500000	18.3007
19.5	1.500000	12.448
-28	2.000000	18.3418
-9.000000	2.000000	13.0785
10	2.000000	15.0669
29	2.000000	13.3668
-18.5	2.500000	20.5855
0.500000	2.500000	22.1544
19.5	2.500000	10.8355
-28	3.000000	17.213
-9.000000	3.000000	14.4972
10	3.000000	20.6594
29	3.000000	9.067748
-18.5	3.500000	14.1238
0.500000	3.500000	21.5752
19.5	3.500000	12.382
-28	4.000000	21.4306
-9.000000	4.000000	25.1803
10	4.000000	13.6564
29	4.000000	9.428159
-18.5	4.500000	16.0864
0.500000	4.500000	17.5474
19.5	4.500000	18.4837
-28	5.000000	14.8628
-9.000000	5.000000	17.3181
10	5.000000	19.9378
29	5.000000	10.4267
-18.5	5.500000	17.294
0.500000	5.500000	17.9401
19.5	5.500000	12.2653
-28	6.000000	14.8118
-9.000000	6.000000	22.2461
10	6.000000	24.9397
29	6.000000	10.9189
-18.5	6.500000	18.0197
0.500000	6.500000	13.2078
19.5	6.500000	15.8852
-28	7.000000	19.419
-9.000000	7.000000	32.3975
10	7.000000	25.5238
29	7.000000	12.969
-18.5	7.500000	18.644
0.500000	7.500000	16.747
19.5	7.500000	13.2903
-28	8.000000	0.639823
-9.000000	8.000000	21.6595
10	8.000000	24.3455
29	8.000000	24.6329
-18.5	8.500000	15.4792
0.500000	8.500000	17.9416
19.5	8.500000	16.6858
-28	9.000000	0.639823
-9.000000	9.000000	19.0099
10	9.000000	17.4502
29	9.000000	13.7907
-18.5	9.500000	18.068
0.500000	9.500000	15.6352
19.5	9.500000	12.6753
-28	10	11.2263
-9.000000	10	27.469
10	10	16.6691
29	10	15.0259
-18.5	10.5	18.3453
0.500000	10.5	19.0342
19.5	10.5	14.3772
-28	11	1.998116
-9.000000	11	13.7707
10	11	14.1134
29	11	18.0544
-18.5	11.5	23.5009
0.500000	11.5	17.0586
19.5	11.5	10.2365
-28	12	26.0142
-9.000000	12	23.3089
10	12	22.4899
29	12	16.2661
-18.5	12.5	1.518967
0.500000	12.5	11.1956
19.5	12.5	16.1261
-28	13	1.383235
-9.000000	13	14.5797
10	13	27.8778
29	13	17.2765
-18.5	13.5	3.305367
0.500000	13.5	13.0492
19.5	13.5	15.21
-28	14	0.639823
-9.000000	14	13.7163
10	14	21.3339
29	14	6.476096
-18.5	14.5	0.682808
0.500000	14.5	24.3402
19.5	14.5	20.0115
-28	15	0.639823
-9.000000	15	22.0523
10	15	18.5749
29	15	17.0349
-18.5	15.5	0.639823
0.500000	15.5	23.4871
19.5	15.5	14.4477
-28	16	0.639823
-9.000000	16	16.058
10	16	22.3044
29	16	140.741
-18.5	16.5	0.639823
0.500000	16.5	0.639823
19.5	16.5	14.4403
-28	17	22.7432
-9.000000	17	16.8925
10	17	18.258
29	17	21.9374
-18.5	17.5	0.639823
0.500000	17.5	30.4397
19.5	17.5	14.5323
-28	18	49.272
-9.000000	18	20.1309
10	18	17.0887
29	18	27.367
-18.5	18.5	3.043823
0.500000	18.5	18.7539
19.5	18.5	17.0335
-28	19	16.1384
-9.000000	19	29.5055
10	19	20.2454
29	19	0.639823
-18.5	19.5	0.639823
0.500000	19.5	21.2036
19.5	19.5	19.2745
-28	20	24.941
-9.000000	20	24.4316
10	20	18.2234
29	20	0.639823
38	20	0.639823