File: data/derived_data/raman/20170920_Gr-NH2_for_Radisurf/20170920 Gr-NH for Radisurf map 1/Dp int.txt
#XList		#YList		#IList
-28	-22	0.000000
-9.000000	-22	124.569
10	-22	69.3773
29	-22	6.870997
-18.5	-21.5	45.837
0.500000	-21.5	41.586
19.5	-21.5	82.9803
-28	-21	18.2317
-9.000000	-21	86.2557
10	-21	42.5448
29	-21	42.0344
-18.5	-20.5	58.0168
0.500000	-20.5	9.126141
19.5	-20.5	73.6547
-28	-20	16.3451
-9.000000	-20	88.9443
10	-20	50.2226
29	-20	67.2453
-18.5	-19.5	51.4639
0.500000	-19.5	65.5445
19.5	-19.5	75.7205
-28	-19	0.000000
-9.000000	-19	25.6175
10	-19	47.395
29	-19	111.765
-18.5	-18.5	71.9398
0.500000	-18.5	26.9548
19.5	-18.5	67.6766
-28	-18	0.000000
-9.000000	-18	0.000000
10	-18	45.0175
29	-18	87.4377
-18.5	-17.5	48.421
0.500000	-17.5	32.6017
19.5	-17.5	75.5606
-28	-17	19.1752
-9.000000	-17	0.000000
10	-17	65.8698
29	-17	50.6606
-18.5	-16.5	67.5884
0.500000	-16.5	33.1195
19.5	-16.5	56.4951
-28	-16	35.4334
-9.000000	-16	45.925
10	-16	49.583
29	-16	36.9987
-18.5	-15.5	61.287
0.500000	-15.5	37.1866
19.5	-15.5	64.5899
-28	-15	25.4028
-9.000000	-15	83.3226
10	-15	47.1578
29	-15	25.7173
-18.5	-14.5	49.2292
0.500000	-14.5	84.3182
19.5	-14.5	17.8573
-28	-14	3.645399
-9.000000	-14	163.117
10	-14	47.7597
29	-14	59.788
-18.5	-13.5	0.000000
0.500000	-13.5	47.7257
19.5	-13.5	0.000000
-28	-13	3.065265
-9.000000	-13	93.6859
10	-13	25.9223
29	-13	43.0616
-18.5	-12.5	34.7764
0.500000	-12.5	41.5572
19.5	-12.5	9.453069
-28	-12	4.787907
-9.000000	-12	68.0063
10	-12	6.708469
29	-12	71.4772
-18.5	-11.5	83.1589
0.500000	-11.5	37.2249
19.5	-11.5	22.9651
-28	-11	13.0904
-9.000000	-11	81.2517
10	-11	65.1269
29	-11	11.3738
-18.5	-10.5	69.297
0.500000	-10.5	49.6618
19.5	-10.5	102.599
-28	-10	78.3091
-9.000000	-10	70.9878
10	-10	61.9689
29	-10	0.000000
-18.5	-9.500000	76.1034
0.500000	-9.500000	47.2262
19.5	-9.500000	49.5137
-28	-9.000000	67.1619
-9.000000	-9.000000	62.997
10	-9.000000	91.2667
29	-9.000000	13.3359
-18.5	-8.500000	96.4475
0.500000	-8.500000	58.5052
19.5	-8.500000	75.398
-28	-8.000000	9.102073
-9.000000	-8.000000	58.4681
10	-8.000000	107.951
29	-8.000000	34.0955
-18.5	-7.500000	81.5853
0.500000	-7.500000	80.732
19.5	-7.500000	41.4291
-28	-7.000000	15.0643
-9.000000	-7.000000	48.4742
10	-7.000000	52.2475
29	-7.000000	11.7106
-18.5	-6.500000	60.7416
0.500000	-6.500000	76.4431
19.5	-6.500000	66.7023
-28	-6.000000	27.4153
-9.000000	-6.000000	35.7454
10	-6.000000	57.5957
29	-6.000000	13.7826
-18.5	-5.500000	34.2072
0.500000	-5.500000	62.0509
19.5	-5.500000	46.7223
-28	-5.000000	33.0886
-9.000000	-5.000000	0.550761
10	-5.000000	58.8726
29	-5.000000	30.8974
-18.5	-4.500000	58.5364
0.500000	-4.500000	81.2859
19.5	-4.500000	24.8314
-28	-4.000000	22.7433
-9.000000	-4.000000	40.6671
10	-4.000000	42.3627
29	-4.000000	108.51
-18.5	-3.500000	45.7272
0.500000	-3.500000	86.6546
19.5	-3.500000	27.223
-28	-3.000000	15.3223
-9.000000	-3.000000	0.000000
10	-3.000000	114.497
29	-3.000000	50.6776
-18.5	-2.500000	66.2479
0.500000	-2.500000	79.6226
19.5	-2.500000	27.6823
-28	-2.000000	21.6412
-9.000000	-2.000000	32.5048
10	-2.000000	67.4026
29	-2.000000	59.1413
-18.5	-1.500000	63.0508
0.500000	-1.500000	70.9167
19.5	-1.500000	30.2305
-28	-1.000000	33.2472
-9.000000	-1.000000	55.2088
10	-1.000000	67.3133
29	-1.000000	54.2854
-18.5	-0.500000	75.6913
0.500000	-0.500000	27.0234
19.5	-0.500000	24.1196
-28	0.000000	19.9963
-9.000000	0.000000	70.9575
10	0.000000	58.3345
29	0.000000	49.7987
-18.5	0.500000	70.969
0.500000	0.500000	42.2562
19.5	0.500000	19.1384
-28	1.000000	39.7672
-9.000000	1.000000	40.4969
10	1.000000	69.1523
29	1.000000	64.3746
-18.5	1.500000	87.3308
0.500000	1.500000	47.6559
19.5	1.500000	21.1005
-28	2.000000	95.446
-9.000000	2.000000	49.4375
10	2.000000	76.6211
29	2.000000	58.7094
-18.5	2.500000	71.7651
0.500000	2.500000	65.4691
19.5	2.500000	34.2559
-28	3.000000	96.6357
-9.000000	3.000000	49.5294
10	3.000000	62.9944
29	3.000000	38.2166
-18.5	3.500000	58.1802
0.500000	3.500000	49.4207
19.5	3.500000	32.3524
-28	4.000000	68.4003
-9.000000	4.000000	41.3657
10	4.000000	59.3772
29	4.000000	54.7371
-18.5	4.500000	60.8766
0.500000	4.500000	97.8061
19.5	4.500000	32.6543
-28	5.000000	75.3324
-9.000000	5.000000	57.9223
10	5.000000	50.7433
29	5.000000	48.8927
-18.5	5.500000	100.505
0.500000	5.500000	54.4515
19.5	5.500000	31.9136
-28	6.000000	52.0201
-9.000000	6.000000	57.0763
10	6.000000	44.0753
29	6.000000	37.5547
-18.5	6.500000	81.6518
0.500000	6.500000	47.7536
19.5	6.500000	37.5876
-28	7.000000	51.568
-9.000000	7.000000	101.754
10	7.000000	41.0488
29	7.000000	33.0175
-18.5	7.500000	73.7484
0.500000	7.500000	44.4632
19.5	7.500000	60.0341
-28	8.000000	0.000000
-9.000000	8.000000	66.2274
10	8.000000	59.9817
29	8.000000	40.1611
-18.5	8.500000	68.4479
0.500000	8.500000	43.9892
19.5	8.500000	21.3949
-28	9.000000	0.000000
-9.000000	9.000000	73.2038
10	9.000000	75.4063
29	9.000000	36.8548
-18.5	9.500000	49.8326
0.500000	9.500000	61.0265
19.5	9.500000	42.2003
-28	10	0.000000
-9.000000	10	79.2614
10	10	46.0701
29	10	39.4248
-18.5	10.5	11.4156
0.500000	10.5	70.7977
19.5	10.5	30.1752
-28	11	0.000000
-9.000000	11	70.2921
10	11	40.8954
29	11	53.4005
-18.5	11.5	15.5691
0.500000	11.5	62.0589
19.5	11.5	54.4736
-28	12	8.343753
-9.000000	12	70.5968
10	12	42.4155
29	12	27.2697
-18.5	12.5	5.872862
0.500000	12.5	66.804
19.5	12.5	67.8123
-28	13	0.000000
-9.000000	13	88.7153
10	13	55.4798
29	13	44.3591
-18.5	13.5	0.000000
0.500000	13.5	70.8316
19.5	13.5	70.2843
-28	14	0.000000
-9.000000	14	73.1429
10	14	111.146
29	14	47.8519
-18.5	14.5	34.6889
0.500000	14.5	41.2441
19.5	14.5	80.4839
-28	15	6.234087
-9.000000	15	59.7269
10	15	93.4582
29	15	48.1792
-18.5	15.5	0.000000
0.500000	15.5	42.9049
19.5	15.5	44.3257
-28	16	9.118110
-9.000000	16	44.9547
10	16	86.9328
29	16	0.000000
-18.5	16.5	0.000000
0.500000	16.5	0.000000
19.5	16.5	62.9323
-28	17	2.442904
-9.000000	17	67.6834
10	17	34.285
29	17	38.8923
-18.5	17.5	12.3499
0.500000	17.5	65.5309
19.5	17.5	46.9666
-28	18	0.000000
-9.000000	18	90.7754
10	18	21.2858
29	18	26.6672
-18.5	18.5	4.857846
0.500000	18.5	28.5493
19.5	18.5	52.7836
-28	19	14.7861
-9.000000	19	53.9507
10	19	27.5474
29	19	0.000000
-18.5	19.5	0.000000
0.500000	19.5	77.997
19.5	19.5	81.3435
-28	20	139.137
-9.000000	20	11.7661
10	20	36.6711
29	20	34.8303
38	20	0.297955