File: data/derived_data/raman/20170920_Gr-NH2_for_Radisurf/20170920 Gr-NH for Radisurf map 1/Dp pos.txt
#XList		#YList		#IList
-28	-22	1615.25
-9.000000	-22	1604.8
10	-22	1609.34
29	-22	1600
-18.5	-21.5	1614.11
0.500000	-21.5	1609.37
19.5	-21.5	1610.9
-28	-21	1619.35
-9.000000	-21	1607.78
10	-21	1610.27
29	-21	1600
-18.5	-20.5	1608.76
0.500000	-20.5	1620.55
19.5	-20.5	1614.9
-28	-20	1611.62
-9.000000	-20	1606.33
10	-20	1609.95
29	-20	1613.29
-18.5	-19.5	1604.98
0.500000	-19.5	1622.15
19.5	-19.5	1613.41
-28	-19	1615.38
-9.000000	-19	1618.08
10	-19	1606.57
29	-19	1614.05
-18.5	-18.5	1612.39
0.500000	-18.5	1600.88
19.5	-18.5	1611.19
-28	-18	1640
-9.000000	-18	1615.58
10	-18	1605.35
29	-18	1613.69
-18.5	-17.5	1614.22
0.500000	-17.5	1620.14
19.5	-17.5	1609.13
-28	-17	1616.53
-9.000000	-17	1640
10	-17	1606.39
29	-17	1615.98
-18.5	-16.5	1611.51
0.500000	-16.5	1616.01
19.5	-16.5	1615.32
-28	-16	1612.45
-9.000000	-16	1614.22
10	-16	1608.59
29	-16	1613.52
-18.5	-15.5	1606.82
0.500000	-15.5	1600
19.5	-15.5	1616.94
-28	-15	1615.84
-9.000000	-15	1611.31
10	-15	1609.78
29	-15	1614.57
-18.5	-14.5	1607.72
0.500000	-14.5	1614.69
19.5	-14.5	1608.43
-28	-14	1615.3
-9.000000	-14	1604.59
10	-14	1611.22
29	-14	1614.65
-18.5	-13.5	1624.14
0.500000	-13.5	1615.26
19.5	-13.5	1638.64
-28	-13	1621.78
-9.000000	-13	1602.53
10	-13	1619.44
29	-13	1617.75
-18.5	-12.5	1606.66
0.500000	-12.5	1616.2
19.5	-12.5	1612.08
-28	-12	1620.55
-9.000000	-12	1604.63
10	-12	1618.91
29	-12	1614.66
-18.5	-11.5	1602.35
0.500000	-11.5	1617.14
19.5	-11.5	1613.95
-28	-11	1623.16
-9.000000	-11	1604.5
10	-11	1611.27
29	-11	1622.89
-18.5	-10.5	1605.55
0.500000	-10.5	1609.11
19.5	-10.5	1614.47
-28	-10	1617.04
-9.000000	-10	1603.38
10	-10	1614.51
29	-10	1616.13
-18.5	-9.500000	1605.23
0.500000	-9.500000	1614.68
19.5	-9.500000	1606.52
-28	-9.000000	1612.97
-9.000000	-9.000000	1601.48
10	-9.000000	1613.76
29	-9.000000	1617.47
-18.5	-8.500000	1602.75
0.500000	-8.500000	1612.69
19.5	-8.500000	1600
-28	-8.000000	1617.93
-9.000000	-8.000000	1608.86
10	-8.000000	1613.01
29	-8.000000	1600
-18.5	-7.500000	1605.84
0.500000	-7.500000	1612.01
19.5	-7.500000	1610.67
-28	-7.000000	1606.38
-9.000000	-7.000000	1609.94
10	-7.000000	1614.25
29	-7.000000	1616.7
-18.5	-6.500000	1606.42
0.500000	-6.500000	1612.94
19.5	-6.500000	1609.45
-28	-6.000000	1609.18
-9.000000	-6.000000	1609.1
10	-6.000000	1609.34
29	-6.000000	1615.5
-18.5	-5.500000	1612.94
0.500000	-5.500000	1616.78
19.5	-5.500000	1610.19
-28	-5.000000	1615.18
-9.000000	-5.000000	1619.99
10	-5.000000	1615.61
29	-5.000000	1617.99
-18.5	-4.500000	1613.16
0.500000	-4.500000	1615.38
19.5	-4.500000	1608.52
-28	-4.000000	1619.06
-9.000000	-4.000000	1633.18
10	-4.000000	1615.34
29	-4.000000	1600
-18.5	-3.500000	1614.09
0.500000	-3.500000	1611.67
19.5	-3.500000	1613.75
-28	-3.000000	1616.05
-9.000000	-3.000000	1628.78
10	-3.000000	1615.21
29	-3.000000	1613.52
-18.5	-2.500000	1616.23
0.500000	-2.500000	1612.19
19.5	-2.500000	1611.2
-28	-2.000000	1617.91
-9.000000	-2.000000	1607.01
10	-2.000000	1603.61
29	-2.000000	1612.76
-18.5	-1.500000	1615.13
0.500000	-1.500000	1616.36
19.5	-1.500000	1614.23
-28	-1.000000	1611.55
-9.000000	-1.000000	1604.71
10	-1.000000	1601.87
29	-1.000000	1613.66
-18.5	-0.500000	1612.13
0.500000	-0.500000	1613.68
19.5	-0.500000	1616.36
-28	0.000000	1615.14
-9.000000	0.000000	1600.28
10	0.000000	1610.56
29	0.000000	1612.08
-18.5	0.500000	1613.03
0.500000	0.500000	1609.4
19.5	0.500000	1616.33
-28	1.000000	1613.77
-9.000000	1.000000	1610.44
10	1.000000	1612.61
29	1.000000	1605.01
-18.5	1.500000	1614.47
0.500000	1.500000	1612.07
19.5	1.500000	1615.46
-28	2.000000	1616.31
-9.000000	2.000000	1615.28
10	2.000000	1613.34
29	2.000000	1615.36
-18.5	2.500000	1608.87
0.500000	2.500000	1616.49
19.5	2.500000	1613.32
-28	3.000000	1616.63
-9.000000	3.000000	1616.84
10	3.000000	1609.72
29	3.000000	1618.17
-18.5	3.500000	1613.31
0.500000	3.500000	1613.38
19.5	3.500000	1613.55
-28	4.000000	1616.73
-9.000000	4.000000	1609.29
10	4.000000	1618
29	4.000000	1614.64
-18.5	4.500000	1614.22
0.500000	4.500000	1614.46
19.5	4.500000	1611.57
-28	5.000000	1617.05
-9.000000	5.000000	1614.63
10	5.000000	1616.37
29	5.000000	1615.06
-18.5	5.500000	1615.44
0.500000	5.500000	1612.7
19.5	5.500000	1615.7
-28	6.000000	1615.55
-9.000000	6.000000	1607.2
10	6.000000	1616.93
29	6.000000	1615.76
-18.5	6.500000	1616.22
0.500000	6.500000	1618.34
19.5	6.500000	1614.05
-28	7.000000	1614.63
-9.000000	7.000000	1602.3
10	7.000000	1616.57
29	7.000000	1613.55
-18.5	7.500000	1616.19
0.500000	7.500000	1613.7
19.5	7.500000	1613.35
-28	8.000000	1622.66
-9.000000	8.000000	1608.66
10	8.000000	1616.48
29	8.000000	1603.86
-18.5	8.500000	1618.19
0.500000	8.500000	1612.89
19.5	8.500000	1606.98
-28	9.000000	1620.65
-9.000000	9.000000	1609.21
10	9.000000	1616.1
29	9.000000	1616.17
-18.5	9.500000	1617.14
0.500000	9.500000	1615.35
19.5	9.500000	1609.15
-28	10	1600
-9.000000	10	1607.77
10	10	1615.53
29	10	1613.37
-18.5	10.5	1617.71
0.500000	10.5	1615.97
19.5	10.5	1610.62
-28	11	1618.95
-9.000000	11	1614.34
10	11	1618.83
29	11	1612.02
-18.5	11.5	1612.68
0.500000	11.5	1615.55
19.5	11.5	1617.75
-28	12	1626.16
-9.000000	12	1610.59
10	12	1616.83
29	12	1608.32
-18.5	12.5	1630.22
0.500000	12.5	1615.79
19.5	12.5	1617.26
-28	13	1601.96
-9.000000	13	1613.05
10	13	1613.35
29	13	1610.79
-18.5	13.5	1620.02
0.500000	13.5	1611.87
19.5	13.5	1617.09
-28	14	1622
-9.000000	14	1614.33
10	14	1613.8
29	14	1617.02
-18.5	14.5	1617.16
0.500000	14.5	1616.17
19.5	14.5	1614.84
-28	15	1618.53
-9.000000	15	1616.08
10	15	1612.88
29	15	1612.16
-18.5	15.5	1611.47
0.500000	15.5	1617.44
19.5	15.5	1614.91
-28	16	1607.01
-9.000000	16	1613.54
10	16	1611.62
29	16	1600
-18.5	16.5	1628.07
0.500000	16.5	1600
19.5	16.5	1617.79
-28	17	1616.49
-9.000000	17	1613.38
10	17	1616.6
29	17	1604.46
-18.5	17.5	1621.32
0.500000	17.5	1607.96
19.5	17.5	1619.65
-28	18	1634.73
-9.000000	18	1615.3
10	18	1616.94
29	18	1617.27
-18.5	18.5	1616.5
0.500000	18.5	1619.38
19.5	18.5	1617.54
-28	19	1613.25
-9.000000	19	1614.12
10	19	1611.16
29	19	1619.25
-18.5	19.5	1622.19
0.500000	19.5	1616.46
19.5	19.5	1615.59
-28	20	1614.94
-9.000000	20	1620.71
10	20	1617.6
29	20	1616.27
38	20	1615.51