File: data/derived_data/raman/20170920_Gr-NH2_for_Radisurf/20170920 Gr-NH for Radisurf map 1/G FWHM.txt
#XList		#YList		#IList
-28	-22	50.0009
-9.000000	-22	66.1362
10	-22	64.5749
29	-22	24.0381
-18.5	-21.5	57.6409
0.500000	-21.5	66.5474
19.5	-21.5	61.1118
-28	-21	71.889
-9.000000	-21	67.4979
10	-21	59.3216
29	-21	16.0391
-18.5	-20.5	64.2854
0.500000	-20.5	47.2538
19.5	-20.5	59.5633
-28	-20	336.711
-9.000000	-20	70.3056
10	-20	58.7197
29	-20	24.8647
-18.5	-19.5	62.9232
0.500000	-19.5	56.4552
19.5	-19.5	55.8003
-28	-19	106.326
-9.000000	-19	57.559
10	-19	61.3275
29	-19	30.8495
-18.5	-18.5	37.7605
0.500000	-18.5	70.21
19.5	-18.5	58.7932
-28	-18	46.5545
-9.000000	-18	87.5246
10	-18	63.2465
29	-18	54.258
-18.5	-17.5	22.219
0.500000	-17.5	28.0534
19.5	-17.5	66.0312
-28	-17	26.514
-9.000000	-17	54.8812
10	-17	67.0493
29	-17	61.6402
-18.5	-16.5	64.8177
0.500000	-16.5	22.2964
19.5	-16.5	61.1494
-28	-16	28.3409
-9.000000	-16	63.3483
10	-16	67.2213
29	-16	22.2784
-18.5	-15.5	59.0342
0.500000	-15.5	15.5677
19.5	-15.5	46.2102
-28	-15	24.2229
-9.000000	-15	53.4817
10	-15	63.0107
29	-15	22.533
-18.5	-14.5	65.1904
0.500000	-14.5	23.7273
19.5	-14.5	65.9775
-28	-14	37.9087
-9.000000	-14	72.6035
10	-14	56.8573
29	-14	23.9856
-18.5	-13.5	74.0093
0.500000	-13.5	45.2467
19.5	-13.5	41.0887
-28	-13	48.0688
-9.000000	-13	67.2394
10	-13	58.7588
29	-13	29.7734
-18.5	-12.5	75.9092
0.500000	-12.5	46.3444
19.5	-12.5	73.8737
-28	-12	65.325
-9.000000	-12	66.8715
10	-12	49.3517
29	-12	37.2904
-18.5	-11.5	66.861
0.500000	-11.5	48.5542
19.5	-11.5	61.8741
-28	-11	60.4191
-9.000000	-11	63.4494
10	-11	21.7765
29	-11	55.2108
-18.5	-10.5	67.0833
0.500000	-10.5	48.6974
19.5	-10.5	26.3868
-28	-10	56.1827
-9.000000	-10	66.2816
10	-10	24.6188
29	-10	80.5342
-18.5	-9.500000	70.3269
0.500000	-9.500000	57.0005
19.5	-9.500000	16.0096
-28	-9.000000	54.6442
-9.000000	-9.000000	69.8275
10	-9.000000	27.2832
29	-9.000000	38.4223
-18.5	-8.500000	71.4504
0.500000	-8.500000	55.4653
19.5	-8.500000	15.6797
-28	-8.000000	69.5675
-9.000000	-8.000000	66.1367
10	-8.000000	27.7827
29	-8.000000	19.3497
-18.5	-7.500000	65.3261
0.500000	-7.500000	52.1743
19.5	-7.500000	72.1787
-28	-7.000000	80.0362
-9.000000	-7.000000	64.7072
10	-7.000000	66.447
29	-7.000000	20.8439
-18.5	-6.500000	65.7523
0.500000	-6.500000	65.1058
19.5	-6.500000	67.3103
-28	-6.000000	70.8019
-9.000000	-6.000000	68.7976
10	-6.000000	63.7733
29	-6.000000	18.8155
-18.5	-5.500000	61.7383
0.500000	-5.500000	49.8146
19.5	-5.500000	60.7854
-28	-5.000000	59.2166
-9.000000	-5.000000	44.5467
10	-5.000000	42.8372
29	-5.000000	56.7364
-18.5	-4.500000	59.5847
0.500000	-4.500000	57.2754
19.5	-4.500000	69.5878
-28	-4.000000	59.1926
-9.000000	-4.000000	479.724
10	-4.000000	22.0417
29	-4.000000	19.8218
-18.5	-3.500000	70.4236
0.500000	-3.500000	62.3287
19.5	-3.500000	69.6507
-28	-3.000000	51.0775
-9.000000	-3.000000	59.6939
10	-3.000000	46.6658
29	-3.000000	59.5423
-18.5	-2.500000	62.1556
0.500000	-2.500000	58.2245
19.5	-2.500000	63.8163
-28	-2.000000	44.6606
-9.000000	-2.000000	83.4286
10	-2.000000	63.0072
29	-2.000000	51.6374
-18.5	-1.500000	64.12
0.500000	-1.500000	55.5313
19.5	-1.500000	70.3663
-28	-1.000000	39.7612
-9.000000	-1.000000	67.482
10	-1.000000	63.1022
29	-1.000000	53.0673
-18.5	-0.500000	61.6412
0.500000	-0.500000	73.7006
19.5	-0.500000	64.0668
-28	0.000000	56.561
-9.000000	0.000000	66.3845
10	0.000000	61.3665
29	0.000000	67.2539
-18.5	0.500000	52.547
0.500000	0.500000	64.5423
19.5	0.500000	64.1265
-28	1.000000	57.7053
-9.000000	1.000000	61.1936
10	1.000000	51.7754
29	1.000000	64.6269
-18.5	1.500000	60.5152
0.500000	1.500000	61.6245
19.5	1.500000	64.3641
-28	2.000000	44.1259
-9.000000	2.000000	50.4817
10	2.000000	52.3159
29	2.000000	57.542
-18.5	2.500000	61.0388
0.500000	2.500000	49.2509
19.5	2.500000	61.4595
-28	3.000000	49.329
-9.000000	3.000000	45.3191
10	3.000000	61.5299
29	3.000000	58.0598
-18.5	3.500000	66.6172
0.500000	3.500000	49.2466
19.5	3.500000	67.9494
-28	4.000000	55.3194
-9.000000	4.000000	47.2243
10	4.000000	49.9302
29	4.000000	54.0906
-18.5	4.500000	52.9219
0.500000	4.500000	56.7276
19.5	4.500000	70.3945
-28	5.000000	55.9111
-9.000000	5.000000	56.6119
10	5.000000	45.7904
29	5.000000	59.2633
-18.5	5.500000	51.1132
0.500000	5.500000	55.5886
19.5	5.500000	63.1261
-28	6.000000	54.2885
-9.000000	6.000000	64.9198
10	6.000000	36.3884
29	6.000000	69.4936
-18.5	6.500000	37.5801
0.500000	6.500000	55.4323
19.5	6.500000	60.1353
-28	7.000000	66.2026
-9.000000	7.000000	68.6955
10	7.000000	27.3614
29	7.000000	62.7735
-18.5	7.500000	38.9357
0.500000	7.500000	60.4061
19.5	7.500000	54.7364
-28	8.000000	78.4933
-9.000000	8.000000	67.0075
10	8.000000	34.9579
29	8.000000	70.4777
-18.5	8.500000	51.9353
0.500000	8.500000	67.7827
19.5	8.500000	70.9203
-28	9.000000	155.988
-9.000000	9.000000	69.2368
10	9.000000	41.5203
29	9.000000	67.723
-18.5	9.500000	56.9971
0.500000	9.500000	46.0741
19.5	9.500000	58.68
-28	10	285.988
-9.000000	10	67.2605
10	10	48.4759
29	10	63.6165
-18.5	10.5	63.0945
0.500000	10.5	36.7858
19.5	10.5	64.0632
-28	11	79.6727
-9.000000	11	65.2994
10	11	43.5143
29	11	61.0291
-18.5	11.5	65.9621
0.500000	11.5	42.7506
19.5	11.5	52.6608
-28	12	31.5073
-9.000000	12	64.7867
10	12	34.5401
29	12	66.656
-18.5	12.5	24.7052
0.500000	12.5	52.0962
19.5	12.5	43.3896
-28	13	135.319
-9.000000	13	61.4046
10	13	25.1681
29	13	67.0125
-18.5	13.5	1852.8
0.500000	13.5	61.9243
19.5	13.5	47.626
-28	14	72.0204
-9.000000	14	59.2505
10	14	37.0966
29	14	63.1923
-18.5	14.5	62.0331
0.500000	14.5	59.2505
19.5	14.5	49.8739
-28	15	487.863
-9.000000	15	56.0943
10	15	62.1519
29	15	62.7247
-18.5	15.5	2.029483
0.500000	15.5	41.1646
19.5	15.5	60.5434
-28	16	234.702
-9.000000	16	69.5702
10	16	55.6838
29	16	69.3372
-18.5	16.5	0.639823
0.500000	16.5	74.6269
19.5	16.5	44.4828
-28	17	406.27
-9.000000	17	54.2303
10	17	59.1259
29	17	68.9697
-18.5	17.5	0.721075
0.500000	17.5	67.954
19.5	17.5	41.1926
-28	18	98.1079
-9.000000	18	45.5684
10	18	64.7849
29	18	32.3954
-18.5	18.5	481.135
0.500000	18.5	55.2578
19.5	18.5	40.2549
-28	19	66.8977
-9.000000	19	28.974
10	19	60.656
29	19	87.2775
-18.5	19.5	4.354092
0.500000	19.5	32.2998
19.5	19.5	33.2338
-28	20	33.6937
-9.000000	20	45.29
10	20	59.2565
29	20	42.5652
38	20	59.4339