File: data/derived_data/raman/20170920_Gr-NH2_for_Radisurf/20170920 Gr-NH for Radisurf map 1/G int.txt
#XList		#YList		#IList
-28	-22	1.257557
-9.000000	-22	421.322
10	-22	355.727
29	-22	40.0319
-18.5	-21.5	291.897
0.500000	-21.5	262.003
19.5	-21.5	421.579
-28	-21	1.654783
-9.000000	-21	319.02
10	-21	231.748
29	-21	167.328
-18.5	-20.5	320.764
0.500000	-20.5	20.5874
19.5	-20.5	373.913
-28	-20	2.002391
-9.000000	-20	278.353
10	-20	262.731
29	-20	290.872
-18.5	-19.5	360.966
0.500000	-19.5	4.665486
19.5	-19.5	362.461
-28	-19	5.199876
-9.000000	-19	114.333
10	-19	310.838
29	-19	347.219
-18.5	-18.5	338.793
0.500000	-18.5	4.463345
19.5	-18.5	388.249
-28	-18	11.3701
-9.000000	-18	6.732979
10	-18	327.688
29	-18	176.537
-18.5	-17.5	211.575
0.500000	-17.5	189.055
19.5	-17.5	387.679
-28	-17	180.57
-9.000000	-17	6.323810
10	-17	350.028
29	-17	164.953
-18.5	-16.5	351.362
0.500000	-16.5	207.195
19.5	-16.5	375.556
-28	-16	174.537
-9.000000	-16	127.098
10	-16	300.64
29	-16	223.662
-18.5	-15.5	330.467
0.500000	-15.5	271.481
19.5	-15.5	223.555
-28	-15	258.007
-9.000000	-15	394.989
10	-15	337.926
29	-15	180.8
-18.5	-14.5	382.759
0.500000	-14.5	417.113
19.5	-14.5	37.5496
-28	-14	7.276655
-9.000000	-14	264.624
10	-14	280.603
29	-14	287.618
-18.5	-13.5	220.27
0.500000	-13.5	312.763
19.5	-13.5	10.9943
-28	-13	6.933008
-9.000000	-13	345.646
10	-13	78.7542
29	-13	362.017
-18.5	-12.5	48.6205
0.500000	-12.5	202.412
19.5	-12.5	12.5994
-28	-12	14.6802
-9.000000	-12	376.466
10	-12	18.3136
29	-12	355.327
-18.5	-11.5	365.745
0.500000	-11.5	137.197
19.5	-11.5	122.326
-28	-11	11.2319
-9.000000	-11	376.342
10	-11	315.936
29	-11	21.7011
-18.5	-10.5	338.876
0.500000	-10.5	278.814
19.5	-10.5	440.946
-28	-10	190.969
-9.000000	-10	330.803
10	-10	284.59
29	-10	3.545895
-18.5	-9.500000	370.918
0.500000	-9.500000	331.645
19.5	-9.500000	370.038
-28	-9.000000	155.714
-9.000000	-9.000000	296.909
10	-9.000000	447.65
29	-9.000000	33.1786
-18.5	-8.500000	356.33
0.500000	-8.500000	360.341
19.5	-8.500000	454.559
-28	-8.000000	24.9095
-9.000000	-8.000000	274.136
10	-8.000000	443.994
29	-8.000000	383.797
-18.5	-7.500000	345.048
0.500000	-7.500000	390.618
19.5	-7.500000	77.1676
-28	-7.000000	32.188
-9.000000	-7.000000	310.715
10	-7.000000	282.062
29	-7.000000	280.348
-18.5	-6.500000	233.36
0.500000	-6.500000	372.539
19.5	-6.500000	272.99
-28	-6.000000	60.6172
-9.000000	-6.000000	225.444
10	-6.000000	271.055
29	-6.000000	300.606
-18.5	-5.500000	249.974
0.500000	-5.500000	216.639
19.5	-5.500000	211.514
-28	-5.000000	96.2403
-9.000000	-5.000000	10.7867
10	-5.000000	302.326
29	-5.000000	125.076
-18.5	-4.500000	277.513
0.500000	-4.500000	233.523
19.5	-4.500000	184.931
-28	-4.000000	80.1965
-9.000000	-4.000000	1.309967
10	-4.000000	292.075
29	-4.000000	430.063
-18.5	-3.500000	260.193
0.500000	-3.500000	302.781
19.5	-3.500000	154.591
-28	-3.000000	84.1199
-9.000000	-3.000000	3.303355
10	-3.000000	322.034
29	-3.000000	251.85
-18.5	-2.500000	260.242
0.500000	-2.500000	274.962
19.5	-2.500000	169.669
-28	-2.000000	91.0962
-9.000000	-2.000000	33.8457
10	-2.000000	254.232
29	-2.000000	327.533
-18.5	-1.500000	209.824
0.500000	-1.500000	287.815
19.5	-1.500000	155.109
-28	-1.000000	100.26
-9.000000	-1.000000	333.456
10	-1.000000	279.037
29	-1.000000	302.452
-18.5	-0.500000	282.451
0.500000	-0.500000	127.516
19.5	-0.500000	143.103
-28	0.000000	84.2761
-9.000000	0.000000	309.785
10	0.000000	324.784
29	0.000000	269.212
-18.5	0.500000	323.301
0.500000	0.500000	236.318
19.5	0.500000	151.491
-28	1.000000	93.1016
-9.000000	1.000000	278.464
10	1.000000	375.713
29	1.000000	256.083
-18.5	1.500000	330.571
0.500000	1.500000	240.667
19.5	1.500000	166.11
-28	2.000000	243.968
-9.000000	2.000000	245.86
10	2.000000	359.257
29	2.000000	315.985
-18.5	2.500000	305.378
0.500000	2.500000	230.42
19.5	2.500000	152.061
-28	3.000000	295.667
-9.000000	3.000000	224.939
10	3.000000	313.518
29	3.000000	308.037
-18.5	3.500000	368.998
0.500000	3.500000	258.561
19.5	3.500000	182.234
-28	4.000000	300.015
-9.000000	4.000000	213.974
10	4.000000	224.956
29	4.000000	302.93
-18.5	4.500000	361.32
0.500000	4.500000	301.649
19.5	4.500000	161.811
-28	5.000000	297.585
-9.000000	5.000000	255.639
10	5.000000	181.779
29	5.000000	249.433
-18.5	5.500000	359.795
0.500000	5.500000	267.015
19.5	5.500000	159.358
-28	6.000000	215.567
-9.000000	6.000000	285.39
10	6.000000	176.65
29	6.000000	169.931
-18.5	6.500000	316.055
0.500000	6.500000	260.487
19.5	6.500000	226.898
-28	7.000000	225.741
-9.000000	7.000000	231.018
10	7.000000	223.923
29	7.000000	206.535
-18.5	7.500000	290.328
0.500000	7.500000	248.844
19.5	7.500000	277.606
-28	8.000000	16.9496
-9.000000	8.000000	196.045
10	8.000000	235.721
29	8.000000	174.807
-18.5	8.500000	321.625
0.500000	8.500000	276.763
19.5	8.500000	163.865
-28	9.000000	2.475340
-9.000000	9.000000	238.529
10	9.000000	337.485
29	9.000000	166.262
-18.5	9.500000	196.03
0.500000	9.500000	358.513
19.5	9.500000	269.435
-28	10	1.818895
-9.000000	10	218.959
10	10	252.827
29	10	175.786
-18.5	10.5	20.4375
0.500000	10.5	391.921
19.5	10.5	287.875
-28	11	11.6988
-9.000000	11	260.537
10	11	234.176
29	11	191.55
-18.5	11.5	44.0242
0.500000	11.5	397.097
19.5	11.5	250.429
-28	12	18.9654
-9.000000	12	270.168
10	12	198.405
29	12	164.554
-18.5	12.5	6.253254
0.500000	12.5	360.369
19.5	12.5	255.691
-28	13	2.770619
-9.000000	13	303.582
10	13	272.073
29	13	233.201
-18.5	13.5	0.501058
0.500000	13.5	332.748
19.5	13.5	264.304
-28	14	2.205644
-9.000000	14	328.156
10	14	367.349
29	14	214.618
-18.5	14.5	0.000000
0.500000	14.5	79.7131
19.5	14.5	293.176
-28	15	0.884617
-9.000000	15	224.299
10	15	231.551
29	15	205.283
-18.5	15.5	8.734245
0.500000	15.5	182.801
19.5	15.5	271.694
-28	16	1.678323
-9.000000	16	258.356
10	16	304.995
29	16	307.616
-18.5	16.5	18.3473
0.500000	16.5	16.73
19.5	16.5	280.896
-28	17	0.020197
-9.000000	17	354.031
10	17	95.8274
29	17	273.746
-18.5	17.5	55.7744
0.500000	17.5	88.0752
19.5	17.5	197.756
-28	18	3.946100
-9.000000	18	250.128
10	18	51.2555
29	18	105.359
-18.5	18.5	0.490992
0.500000	18.5	130.337
19.5	18.5	225.955
-28	19	46.3451
-9.000000	19	221.607
10	19	165.41
29	19	3.596144
-18.5	19.5	3.995319
0.500000	19.5	381.764
19.5	19.5	374.268
-28	20	446.537
-9.000000	20	39.8284
10	20	129.902
29	20	2.793086
38	20	3.475601