File: data/derived_data/raman/20170920_Gr-NH2_for_Radisurf/20170920 Gr-NH for Radisurf map 1/G pos.txt
#XList		#YList		#IList
-28	-22	1585.82
-9.000000	-22	1570.89
10	-22	1573.9
29	-22	1581.35
-18.5	-21.5	1577.28
0.500000	-21.5	1571.79
19.5	-21.5	1575.06
-28	-21	1600
-9.000000	-21	1575.08
10	-21	1575.93
29	-21	1579.05
-18.5	-20.5	1574.26
0.500000	-20.5	1582.3
19.5	-20.5	1576.04
-28	-20	1600
-9.000000	-20	1574.15
10	-20	1572.35
29	-20	1579.39
-18.5	-19.5	1570.25
0.500000	-19.5	1582.48
19.5	-19.5	1576.91
-28	-19	1582
-9.000000	-19	1583.04
10	-19	1570.39
29	-19	1578.94
-18.5	-18.5	1574.72
0.500000	-18.5	1586.07
19.5	-18.5	1575.03
-28	-18	1585.55
-9.000000	-18	1584.97
10	-18	1570
29	-18	1585.11
-18.5	-17.5	1578.5
0.500000	-17.5	1579.78
19.5	-17.5	1573.45
-28	-17	1580.42
-9.000000	-17	1589.1
10	-17	1571.12
29	-17	1583.65
-18.5	-16.5	1574.86
0.500000	-16.5	1579.68
19.5	-16.5	1578.46
-28	-16	1580.35
-9.000000	-16	1582.75
10	-16	1571.82
29	-16	1579.63
-18.5	-15.5	1570.79
0.500000	-15.5	1580.05
19.5	-15.5	1581.45
-28	-15	1578.5
-9.000000	-15	1574.28
10	-15	1572.53
29	-15	1580.36
-18.5	-14.5	1570.6
0.500000	-14.5	1578.71
19.5	-14.5	1590.93
-28	-14	1584.24
-9.000000	-14	1573.16
10	-14	1572.39
29	-14	1579.59
-18.5	-13.5	1570.83
0.500000	-13.5	1577.11
19.5	-13.5	1586.57
-28	-13	1577.89
-9.000000	-13	1570
10	-13	1586.83
29	-13	1579.13
-18.5	-12.5	1570
0.500000	-12.5	1577.95
19.5	-12.5	1574.32
-28	-12	1588.67
-9.000000	-12	1570
10	-12	1584.02
29	-12	1577.81
-18.5	-11.5	1570
0.500000	-11.5	1580.2
19.5	-11.5	1577.41
-28	-11	1584.08
-9.000000	-11	1570
10	-11	1577.38
29	-11	1586.77
-18.5	-10.5	1570
0.500000	-10.5	1572.81
19.5	-10.5	1578.78
-28	-10	1586.26
-9.000000	-10	1570
10	-10	1577.49
29	-10	1583.68
-18.5	-9.500000	1570
0.500000	-9.500000	1575.36
19.5	-9.500000	1578.51
-28	-9.000000	1584.85
-9.000000	-9.000000	1570
10	-9.000000	1579.13
29	-9.000000	1581.69
-18.5	-8.500000	1570
0.500000	-8.500000	1576.19
19.5	-8.500000	1578.46
-28	-8.000000	1582.95
-9.000000	-8.000000	1572.14
10	-8.000000	1578.18
29	-8.000000	1578.07
-18.5	-7.500000	1570.25
0.500000	-7.500000	1574.88
19.5	-7.500000	1577.6
-28	-7.000000	1577.63
-9.000000	-7.000000	1575.17
10	-7.000000	1579.02
29	-7.000000	1579.31
-18.5	-6.500000	1573.19
0.500000	-6.500000	1573.91
19.5	-6.500000	1573.02
-28	-6.000000	1580.17
-9.000000	-6.000000	1570.55
10	-6.000000	1574.63
29	-6.000000	1578.26
-18.5	-5.500000	1578.13
0.500000	-5.500000	1582.07
19.5	-5.500000	1576.73
-28	-5.000000	1581.8
-9.000000	-5.000000	1591.01
10	-5.000000	1578.84
29	-5.000000	1583.99
-18.5	-4.500000	1578.57
0.500000	-4.500000	1582.64
19.5	-4.500000	1570
-28	-4.000000	1583.4
-9.000000	-4.000000	1600
10	-4.000000	1579.23
29	-4.000000	1574.84
-18.5	-3.500000	1576.78
0.500000	-3.500000	1578.25
19.5	-3.500000	1577.34
-28	-3.000000	1582
-9.000000	-3.000000	1586.38
10	-3.000000	1580.57
29	-3.000000	1578.02
-18.5	-2.500000	1578.97
0.500000	-2.500000	1577.05
19.5	-2.500000	1576.21
-28	-2.000000	1580.54
-9.000000	-2.000000	1570
10	-2.000000	1570.62
29	-2.000000	1574.96
-18.5	-1.500000	1583.49
0.500000	-1.500000	1576.78
19.5	-1.500000	1577.82
-28	-1.000000	1579.45
-9.000000	-1.000000	1570.58
10	-1.000000	1570
29	-1.000000	1575.43
-18.5	-0.500000	1575.02
0.500000	-0.500000	1580.02
19.5	-0.500000	1579.45
-28	0.000000	1581.78
-9.000000	0.000000	1571.26
10	0.000000	1572.9
29	0.000000	1575.06
-18.5	0.500000	1578.9
0.500000	0.500000	1570.55
19.5	0.500000	1578.11
-28	1.000000	1582.07
-9.000000	1.000000	1576.23
10	1.000000	1576
29	1.000000	1570.59
-18.5	1.500000	1579.24
0.500000	1.500000	1575.52
19.5	1.500000	1577.88
-28	2.000000	1580.98
-9.000000	2.000000	1578.9
10	2.000000	1576.62
29	2.000000	1576.15
-18.5	2.500000	1573.67
0.500000	2.500000	1580.81
19.5	2.500000	1578.11
-28	3.000000	1582.72
-9.000000	3.000000	1581.89
10	3.000000	1576.46
29	3.000000	1577.74
-18.5	3.500000	1575.38
0.500000	3.500000	1575.86
19.5	3.500000	1574.84
-28	4.000000	1580.23
-9.000000	4.000000	1572.6
10	4.000000	1582.79
29	4.000000	1578.15
-18.5	4.500000	1576.38
0.500000	4.500000	1580.56
19.5	4.500000	1576.09
-28	5.000000	1583.64
-9.000000	5.000000	1580.59
10	5.000000	1582.46
29	5.000000	1578.06
-18.5	5.500000	1579.43
0.500000	5.500000	1577.8
19.5	5.500000	1577.09
-28	6.000000	1580.84
-9.000000	6.000000	1574.94
10	6.000000	1581.18
29	6.000000	1577.99
-18.5	6.500000	1580.6
0.500000	6.500000	1580.21
19.5	6.500000	1576.78
-28	7.000000	1580.24
-9.000000	7.000000	1571.5
10	7.000000	1579.74
29	7.000000	1574.28
-18.5	7.500000	1580.87
0.500000	7.500000	1579.79
19.5	7.500000	1576.06
-28	8.000000	1592.67
-9.000000	8.000000	1576.76
10	8.000000	1581.27
29	8.000000	1570
-18.5	8.500000	1580.87
0.500000	8.500000	1574.33
19.5	8.500000	1575.38
-28	9.000000	1600
-9.000000	9.000000	1575.45
10	9.000000	1578.73
29	9.000000	1576.32
-18.5	9.500000	1580.55
0.500000	9.500000	1576.76
19.5	9.500000	1573.29
-28	10	1570
-9.000000	10	1574.81
10	10	1580.64
29	10	1578.1
-18.5	10.5	1586.65
0.500000	10.5	1577.26
19.5	10.5	1573.83
-28	11	1584.69
-9.000000	11	1578.96
10	11	1581.86
29	11	1577.5
-18.5	11.5	1587.24
0.500000	11.5	1576.94
19.5	11.5	1580.12
-28	12	1582.21
-9.000000	12	1577.33
10	12	1581.45
29	12	1574.29
-18.5	12.5	1594.07
0.500000	12.5	1577.61
19.5	12.5	1580.66
-28	13	1576.39
-9.000000	13	1578
10	13	1580.69
29	13	1575.03
-18.5	13.5	1570
0.500000	13.5	1576.49
19.5	13.5	1579.72
-28	14	1582.86
-9.000000	14	1577.81
10	14	1579.97
29	14	1577.61
-18.5	14.5	1600
0.500000	14.5	1586.76
19.5	14.5	1580.27
-28	15	1600
-9.000000	15	1580.85
10	15	1581.46
29	15	1576.46
-18.5	15.5	1586.18
0.500000	15.5	1578.12
19.5	15.5	1576.06
-28	16	1570
-9.000000	16	1575.52
10	16	1577.5
29	16	1573.62
-18.5	16.5	1573.6
0.500000	16.5	1590.16
19.5	16.5	1579.71
-28	17	1570
-9.000000	17	1574.86
10	17	1585.09
29	17	1570
-18.5	17.5	1575.65
0.500000	17.5	1579.72
19.5	17.5	1582.08
-28	18	1600
-9.000000	18	1580.95
10	18	1585.12
29	18	1579.98
-18.5	18.5	1600
0.500000	18.5	1578.26
19.5	18.5	1581.56
-28	19	1582.88
-9.000000	19	1578.08
10	19	1575.61
29	19	1576.97
-18.5	19.5	1590.26
0.500000	19.5	1579.85
19.5	19.5	1578.77
-28	20	1579.51
-9.000000	20	1582.46
10	20	1583.52
29	20	1570
38	20	1572.58