File: data/derived_data/raman/20170920_Gr-NH2_for_Radisurf/20170920 Gr-NH for Radisurf map 1/SiO2 int.txt
#XList		#YList		#IList
-28	-22	43.9119
-9.000000	-22	5.780777
10	-22	10.5345
29	-22	25.5241
-18.5	-21.5	20.0054
0.500000	-21.5	10.2346
19.5	-21.5	0.000000
-28	-21	43.5832
-9.000000	-21	12.0486
10	-21	0.000000
29	-21	7.646980
-18.5	-20.5	12.0917
0.500000	-20.5	29.8755
19.5	-20.5	8.930337
-28	-20	42.6938
-9.000000	-20	24.4321
10	-20	13.0395
29	-20	0.000000
-18.5	-19.5	6.043193
0.500000	-19.5	33.3052
19.5	-19.5	8.689147
-28	-19	40.4256
-9.000000	-19	30.8274
10	-19	0.000000
29	-19	8.264574
-18.5	-18.5	14.3303
0.500000	-18.5	35.2225
19.5	-18.5	16.3125
-28	-18	40.0661
-9.000000	-18	36.3789
10	-18	2.849166
29	-18	23.0056
-18.5	-17.5	2.471782
0.500000	-17.5	20.6249
19.5	-17.5	11.8749
-28	-17	2.607123
-9.000000	-17	39.6605
10	-17	5.904133
29	-17	24.2973
-18.5	-16.5	8.392939
0.500000	-16.5	0.000000
19.5	-16.5	19.227
-28	-16	0.928340
-9.000000	-16	27.0761
10	-16	13.1688
29	-16	3.978182
-18.5	-15.5	7.177921
0.500000	-15.5	2.744748
19.5	-15.5	28.4449
-28	-15	7.762367
-9.000000	-15	9.226400
10	-15	14.6988
29	-15	9.781972
-18.5	-14.5	3.768038
0.500000	-14.5	10.4127
19.5	-14.5	32.668
-28	-14	38.421
-9.000000	-14	13.8257
10	-14	15.0565
29	-14	12.2321
-18.5	-13.5	14.4145
0.500000	-13.5	3.499014
19.5	-13.5	35.5035
-28	-13	41.6179
-9.000000	-13	12.0823
10	-13	32.3867
29	-13	42.4884
-18.5	-12.5	31.5404
0.500000	-12.5	0.583622
19.5	-12.5	34.2376
-28	-12	39.9782
-9.000000	-12	7.464404
10	-12	35.3986
29	-12	7.919945
-18.5	-11.5	6.183720
0.500000	-11.5	4.815501
19.5	-11.5	26.3384
-28	-11	36.0326
-9.000000	-11	6.996981
10	-11	19.4766
29	-11	30.2626
-18.5	-10.5	5.545956
0.500000	-10.5	10.0821
19.5	-10.5	2.288568
-28	-10	31.2711
-9.000000	-10	0.000000
10	-10	24.7408
29	-10	35.9182
-18.5	-9.500000	3.821245
0.500000	-9.500000	8.084909
19.5	-9.500000	1.461272
-28	-9.000000	32.733
-9.000000	-9.000000	11.6175
10	-9.000000	11.9688
29	-9.000000	32.1596
-18.5	-8.500000	5.176316
0.500000	-8.500000	0.000000
19.5	-8.500000	9.120050
-28	-8.000000	35.2524
-9.000000	-8.000000	0.000000
10	-8.000000	11.5782
29	-8.000000	8.648123
-18.5	-7.500000	64.9308
0.500000	-7.500000	0.000000
19.5	-7.500000	27.4306
-28	-7.000000	33.6396
-9.000000	-7.000000	20.614
10	-7.000000	18.0482
29	-7.000000	2.010350
-18.5	-6.500000	0.000000
0.500000	-6.500000	13.0505
19.5	-6.500000	13.4077
-28	-6.000000	25.2425
-9.000000	-6.000000	16.5616
10	-6.000000	15.5383
29	-6.000000	2.158953
-18.5	-5.500000	46.573
0.500000	-5.500000	22.7885
19.5	-5.500000	0.723583
-28	-5.000000	14.5301
-9.000000	-5.000000	33.7944
10	-5.000000	5.201630
29	-5.000000	23.9707
-18.5	-4.500000	0.000000
0.500000	-4.500000	22.7415
19.5	-4.500000	5.394200
-28	-4.000000	10.6702
-9.000000	-4.000000	35.8997
10	-4.000000	2.229580
29	-4.000000	11.6838
-18.5	-3.500000	10.5983
0.500000	-3.500000	20.2388
19.5	-3.500000	0.000000
-28	-3.000000	6.783683
-9.000000	-3.000000	34.9925
10	-3.000000	9.034922
29	-3.000000	10.9804
-18.5	-2.500000	20.7024
0.500000	-2.500000	20.221
19.5	-2.500000	1.829829
-28	-2.000000	7.143818
-9.000000	-2.000000	32.9364
10	-2.000000	5.417150
29	-2.000000	7.449240
-18.5	-1.500000	23.3624
0.500000	-1.500000	20.9353
19.5	-1.500000	6.437151
-28	-1.000000	9.970532
-9.000000	-1.000000	9.642015
10	-1.000000	0.000000
29	-1.000000	0.000000
-18.5	-0.500000	6.560432
0.500000	-0.500000	22.247
19.5	-0.500000	15.9807
-28	0.000000	12.2791
-9.000000	0.000000	6.175590
10	0.000000	5.963074
29	0.000000	5.610903
-18.5	0.500000	3.830376
0.500000	0.500000	4.945736
19.5	0.500000	0.000000
-28	1.000000	14.3258
-9.000000	1.000000	0.000000
10	1.000000	20.4003
29	1.000000	6.285220
-18.5	1.500000	15.6257
0.500000	1.500000	0.000000
19.5	1.500000	2.358313
-28	2.000000	0.000000
-9.000000	2.000000	1.710858
10	2.000000	16.6296
29	2.000000	0.000000
-18.5	2.500000	3.137472
0.500000	2.500000	0.000000
19.5	2.500000	818.201
-28	3.000000	0.000000
-9.000000	3.000000	0.000000
10	3.000000	2.165797
29	3.000000	5.259852
-18.5	3.500000	13.3978
0.500000	3.500000	2000
19.5	3.500000	0.000000
-28	4.000000	0.000000
-9.000000	4.000000	0.000000
10	4.000000	0.000000
29	4.000000	7.478473
-18.5	4.500000	11.9397
0.500000	4.500000	6.302215
19.5	4.500000	0.000000
-28	5.000000	117.725
-9.000000	5.000000	0.000000
10	5.000000	0.000000
29	5.000000	2000
-18.5	5.500000	17.2897
0.500000	5.500000	0.000000
19.5	5.500000	5.822839
-28	6.000000	0.000000
-9.000000	6.000000	0.000000
10	6.000000	0.000000
29	6.000000	0.000000
-18.5	6.500000	2.632539
0.500000	6.500000	0.000000
19.5	6.500000	0.000000
-28	7.000000	20.4156
-9.000000	7.000000	0.000000
10	7.000000	2000
29	7.000000	0.000000
-18.5	7.500000	2.733386
0.500000	7.500000	3.952591
19.5	7.500000	21.4078
-28	8.000000	41.458
-9.000000	8.000000	0.000000
10	8.000000	0.000000
29	8.000000	3.964038
-18.5	8.500000	4.754259
0.500000	8.500000	2.394885
19.5	8.500000	3.362286
-28	9.000000	39.5044
-9.000000	9.000000	0.000000
10	9.000000	0.000000
29	9.000000	6.321938
-18.5	9.500000	22.3765
0.500000	9.500000	3.929372
19.5	9.500000	0.000000
-28	10	40.2377
-9.000000	10	0.000000
10	10	0.000000
29	10	3.614110
-18.5	10.5	36.9224
0.500000	10.5	6.998696
19.5	10.5	7.693935
-28	11	40.9375
-9.000000	11	0.000000
10	11	0.000000
29	11	0.000000
-18.5	11.5	34.0464
0.500000	11.5	10.212
19.5	11.5	48.4344
-28	12	37.3989
-9.000000	12	0.000000
10	12	17.9952
29	12	0.000000
-18.5	12.5	35.5481
0.500000	12.5	8.446005
19.5	12.5	3.712232
-28	13	38.2303
-9.000000	13	0.393962
10	13	0.000000
29	13	0.000000
-18.5	13.5	36.6326
0.500000	13.5	9.154821
19.5	13.5	4.725063
-28	14	36.8104
-9.000000	14	0.000000
10	14	3.710870
29	14	8.629742
-18.5	14.5	35.1395
0.500000	14.5	31.2379
19.5	14.5	0.000000
-28	15	40.6277
-9.000000	15	22.8176
10	15	21.4281
29	15	6.201763
-18.5	15.5	37.6631
0.500000	15.5	27.6464
19.5	15.5	0.000000
-28	16	39.0345
-9.000000	16	5.157099
10	16	18.2194
29	16	0.000000
-18.5	16.5	34.2039
0.500000	16.5	30.4794
19.5	16.5	4.393911
-28	17	40.9601
-9.000000	17	10.726
10	17	28.7047
29	17	11.9197
-18.5	17.5	34.6866
0.500000	17.5	27.8155
19.5	17.5	0.000000
-28	18	39.7116
-9.000000	18	20.5079
10	18	30.2264
29	18	30.0532
-18.5	18.5	34.775
0.500000	18.5	27.8132
19.5	18.5	12.3196
-28	19	35.7772
-9.000000	19	25.604
10	19	24.5925
29	19	34.6825
-18.5	19.5	34.2701
0.500000	19.5	10.7777
19.5	19.5	2.844388
-28	20	10.8106
-9.000000	20	29.4578
10	20	26.0962
29	20	33.6078
38	20	32.3335