File: data/derived_data/raman/20170920_Gr-NH2_for_Radisurf/20170920 Gr-NH for Radisurf map 1/SiO2 FWHM.txt
#XList		#YList		#IList
-28	-22	63.4213
-9.000000	-22	9.963629
10	-22	0.639823
29	-22	59.9462
-18.5	-21.5	52.1844
0.500000	-21.5	46.1068
19.5	-21.5	97.1443
-28	-21	58.081
-9.000000	-21	37.5967
10	-21	0.639823
29	-21	42.8826
-18.5	-20.5	39.8863
0.500000	-20.5	57.0014
19.5	-20.5	34.3053
-28	-20	58.6601
-9.000000	-20	52.0623
10	-20	0.876469
29	-20	309.451
-18.5	-19.5	38.7562
0.500000	-19.5	57.9154
19.5	-19.5	31.9258
-28	-19	61.2412
-9.000000	-19	52.9558
10	-19	43.2029
29	-19	28.5345
-18.5	-18.5	55.0865
0.500000	-18.5	60.0497
19.5	-18.5	0.893227
-28	-18	60.5049
-9.000000	-18	57.0673
10	-18	211.305
29	-18	47.6496
-18.5	-17.5	23.3725
0.500000	-17.5	58.021
19.5	-17.5	60.1559
-28	-17	28.695
-9.000000	-17	59.8113
10	-17	24.4258
29	-17	54.4432
-18.5	-16.5	32.243
0.500000	-16.5	116.262
19.5	-16.5	59.6454
-28	-16	57.8671
-9.000000	-16	53.2859
10	-16	40.0022
29	-16	19.12
-18.5	-15.5	30.3469
0.500000	-15.5	28.6341
19.5	-15.5	60.9954
-28	-15	42.8588
-9.000000	-15	39.7965
10	-15	55.345
29	-15	1.215295
-18.5	-14.5	47.4506
0.500000	-14.5	57.2162
19.5	-14.5	60.7485
-28	-14	62.7619
-9.000000	-14	47.0724
10	-14	68.9848
29	-14	0.789099
-18.5	-13.5	53.2185
0.500000	-13.5	0.639823
19.5	-13.5	58.3641
-28	-13	58.0668
-9.000000	-13	51.73
10	-13	52.965
29	-13	0.907874
-18.5	-12.5	54.1408
0.500000	-12.5	83.5895
19.5	-12.5	59.5783
-28	-12	57.4207
-9.000000	-12	30.0713
10	-12	57.2068
29	-12	39.6525
-18.5	-11.5	25.8467
0.500000	-11.5	42.0288
19.5	-11.5	53.488
-28	-11	57.1405
-9.000000	-11	0.639823
10	-11	49.0062
29	-11	56.6049
-18.5	-10.5	0.639823
0.500000	-10.5	22.7188
19.5	-10.5	49.2117
-28	-10	55.9175
-9.000000	-10	0.639823
10	-10	46.7043
29	-10	59.7328
-18.5	-9.500000	10.822
0.500000	-9.500000	32.1793
19.5	-9.500000	36.2903
-28	-9.000000	49.3708
-9.000000	-9.000000	0.681413
10	-9.000000	46.0726
29	-9.000000	59.0789
-18.5	-8.500000	0.667179
0.500000	-8.500000	0.639823
19.5	-8.500000	50.6253
-28	-8.000000	55.4659
-9.000000	-8.000000	39.745
10	-8.000000	40.4069
29	-8.000000	48.0518
-18.5	-7.500000	0.915794
0.500000	-7.500000	0.639823
19.5	-7.500000	50.275
-28	-7.000000	58.062
-9.000000	-7.000000	0.751923
10	-7.000000	54.1585
29	-7.000000	41.7524
-18.5	-6.500000	0.639823
0.500000	-6.500000	60.8272
19.5	-6.500000	49.9219
-28	-6.000000	56.5592
-9.000000	-6.000000	59.701
10	-6.000000	45.4062
29	-6.000000	57.1714
-18.5	-5.500000	0.646698
0.500000	-5.500000	49.0448
19.5	-5.500000	49.8395
-28	-5.000000	44.0283
-9.000000	-5.000000	63.2588
10	-5.000000	30.2671
29	-5.000000	59.6559
-18.5	-4.500000	32.8731
0.500000	-4.500000	43.7086
19.5	-4.500000	6.841003
-28	-4.000000	42.732
-9.000000	-4.000000	61.1271
10	-4.000000	51.0459
29	-4.000000	40.7872
-18.5	-3.500000	216.408
0.500000	-3.500000	46.2466
19.5	-3.500000	45.2662
-28	-3.000000	44.793
-9.000000	-3.000000	56.6042
10	-3.000000	34.1762
29	-3.000000	48.2651
-18.5	-2.500000	51.2337
0.500000	-2.500000	46.845
19.5	-2.500000	538.91
-28	-2.000000	46.7363
-9.000000	-2.000000	56.5865
10	-2.000000	15.7166
29	-2.000000	29.362
-18.5	-1.500000	52.3129
0.500000	-1.500000	59.5607
19.5	-1.500000	232.337
-28	-1.000000	43.5379
-9.000000	-1.000000	64.8024
10	-1.000000	41.8885
29	-1.000000	48.9591
-18.5	-0.500000	22.3113
0.500000	-0.500000	56.2833
19.5	-0.500000	1.406489
-28	0.000000	56.7733
-9.000000	0.000000	0.639823
10	0.000000	21.5748
29	0.000000	68.7373
-18.5	0.500000	35.7196
0.500000	0.500000	11.49
19.5	0.500000	44.8516
-28	1.000000	52.1947
-9.000000	1.000000	0.639823
10	1.000000	0.834395
29	1.000000	18.1391
-18.5	1.500000	48.0205
0.500000	1.500000	46.329
19.5	1.500000	0.639823
-28	2.000000	0.639823
-9.000000	2.000000	31.581
10	2.000000	0.760350
29	2.000000	39.7527
-18.5	2.500000	31.82
0.500000	2.500000	43.8473
19.5	2.500000	0.640682
-28	3.000000	28.944
-9.000000	3.000000	43.9625
10	3.000000	16.533
29	3.000000	10.0097
-18.5	3.500000	261.874
0.500000	3.500000	0.925093
19.5	3.500000	0.639823
-28	4.000000	32.8254
-9.000000	4.000000	38.8028
10	4.000000	37.2957
29	4.000000	13.2707
-18.5	4.500000	49.6202
0.500000	4.500000	27.5813
19.5	4.500000	0.639823
-28	5.000000	0.639828
-9.000000	5.000000	0.639823
10	5.000000	0.639823
29	5.000000	0.971591
-18.5	5.500000	41.9137
0.500000	5.500000	36.7596
19.5	5.500000	0.698757
-28	6.000000	0.639823
-9.000000	6.000000	27.1356
10	6.000000	42.2882
29	6.000000	49.0716
-18.5	6.500000	0.639823
0.500000	6.500000	39.3746
19.5	6.500000	0.639823
-28	7.000000	58.589
-9.000000	7.000000	32.2575
10	7.000000	0.908234
29	7.000000	38.4956
-18.5	7.500000	0.746300
0.500000	7.500000	0.639823
19.5	7.500000	0.908048
-28	8.000000	57.6874
-9.000000	8.000000	0.639823
10	8.000000	0.639823
29	8.000000	13.8935
-18.5	8.500000	46.805
0.500000	8.500000	0.652667
19.5	8.500000	23.843
-28	9.000000	58.1594
-9.000000	9.000000	36.4546
10	9.000000	0.639823
29	9.000000	216.55
-18.5	9.500000	56.2378
0.500000	9.500000	49.6331
19.5	9.500000	44.937
-28	10	63.1113
-9.000000	10	33.96
10	10	0.639823
29	10	19.0747
-18.5	10.5	57.0853
0.500000	10.5	32.0148
19.5	10.5	57.2427
-28	11	58.964
-9.000000	11	35.5812
10	11	42.3069
29	11	40.8561
-18.5	11.5	58.3635
0.500000	11.5	51.1646
19.5	11.5	0.734489
-28	12	60.0524
-9.000000	12	39.9002
10	12	0.805831
29	12	45.1601
-18.5	12.5	60.5959
0.500000	12.5	48.9098
19.5	12.5	0.673226
-28	13	61.7176
-9.000000	13	0.640390
10	13	43.6977
29	13	46.9309
-18.5	13.5	62.1632
0.500000	13.5	41.3605
19.5	13.5	32.9062
-28	14	63.2357
-9.000000	14	0.639823
10	14	0.639823
29	14	2.835007
-18.5	14.5	63.2128
0.500000	14.5	54.7981
19.5	14.5	0.639823
-28	15	63.8372
-9.000000	15	44.8223
10	15	52.9847
29	15	0.868710
-18.5	15.5	62.3444
0.500000	15.5	56.0636
19.5	15.5	0.639823
-28	16	65.1179
-9.000000	16	47.8275
10	16	46.228
29	16	33.2816
-18.5	16.5	61.9196
0.500000	16.5	60.6481
19.5	16.5	19.2205
-28	17	59.6436
-9.000000	17	21.0131
10	17	55.5259
29	17	49.8404
-18.5	17.5	61.8031
0.500000	17.5	53.0008
19.5	17.5	57.8701
-28	18	62.6771
-9.000000	18	48.3939
10	18	58.3726
29	18	54.4916
-18.5	18.5	61.2031
0.500000	18.5	54.8749
19.5	18.5	1.009151
-28	19	59.6945
-9.000000	19	57.4287
10	19	53.8674
29	19	60.5611
-18.5	19.5	56.1447
0.500000	19.5	27.0433
19.5	19.5	0.712351
-28	20	37.796
-9.000000	20	56.6885
10	20	52.4124
29	20	60.6495
38	20	64.164