File: data/raw_data/uvvis/20171130_GrNH2_azodye/20171130_40min.csv
20171130_40min.csv;;Kemi1\Kemi01;30-11-2017 15:53:39;GENESYS 10S UV-Vis;2L9T161212;4.006
nm;A
200;3.2709
203;3.4795
206;3.5215
209;3.5282
212;3.5071
215;3.5172
218;3.5446
221;3.5537
224;3.6185
227;3.6663
230;3.7342
233;3.6613
236;3.6661
239;3.6577
242;3.7024
245;3.6399
248;3.7139
251;3.6241
254;3.5739
257;3.5201
260;3.5779
263;3.5107
266;3.4777
269;3.4512
272;3.4601
275;3.4312
278;3.4348
281;3.4328
284;3.4395
287;3.464
290;3.4615
293;3.4768
296;3.5008
299;3.2867
302;2.5384
305;2.128
308;2.0459
311;2.1272
314;2.3132
317;2.5506
320;2.7991
323;3.0409
326;3.2042
329;3.249
332;3.3051
335;3.3175
338;3.3033
341;3.2995
344;3.3228
347;3.2871
350;3.2722
353;3.2553
356;3.228
359;3.0266
362;2.6279
365;2.0767
368;1.6164
371;1.2406
374;0.9771
377;0.8093
380;0.7114
383;0.6533
386;0.6273
389;0.6219
392;0.6289
395;0.6441
398;0.6648
401;0.6875
404;0.7108
407;0.7333
410;0.7563
413;0.7759
416;0.7939
419;0.8084
422;0.8195
425;0.8271
428;0.8312
431;0.8323
434;0.8308
437;0.8269
440;0.8206
443;0.8131
446;0.8036
449;0.7943
452;0.7845
455;0.7748
458;0.766
461;0.7591
464;0.7541
467;0.7507
470;0.751
473;0.7522
476;0.756
479;0.7608
482;0.7665
485;0.7716
488;0.7771
491;0.7821
494;0.7848
497;0.7861
500;0.7846
503;0.7812
506;0.7749
509;0.7665
512;0.7549
515;0.7409
518;0.7243
521;0.7057
524;0.6838
527;0.6601
530;0.636
533;0.6064
536;0.5779
539;0.5486
542;0.5173
545;0.4853
548;0.4532
551;0.4205
554;0.3893
557;0.3576
560;0.3279
563;0.2989
566;0.2705
569;0.2441
572;0.2196
575;0.197
578;0.1768
581;0.1583
584;0.1421
587;0.1265
590;0.1132
593;0.1004
596;0.0892
599;0.0805
602;0.0723
605;0.0654
608;0.059
611;0.0538
614;0.0485
617;0.0448
620;0.04
623;0.0377
626;0.0347
629;0.0327
632;0.0308
635;0.0273
638;0.0264
641;0.025
644;0.0238
647;0.0225
650;0.0207
653;0.0205
656;0.0196
659;0.0188
662;0.0178
665;0.017
668;0.0178
671;0.0171
674;0.0154
677;0.0158
680;0.0144
683;0.0153
686;0.0144
689;0.0135
692;0.0145
695;0.0137
698;0.013
701;0.0132
704;0.0116
707;0.012
710;0.0118
713;0.0106
716;0.0114
719;0.0117
722;0.0107
725;0.0105
728;0.0105
731;0.0101
734;0.01
737;0.0098
740;0.0099
743;0.0093
746;0.0089
749;0.0088
752;0.0092
755;0.0091
758;0.0087
761;0.0086
764;0.0086
767;0.0084
770;0.0075
773;0.0083
776;0.007
779;0.0079
782;0.0079
785;0.0078
788;0.0076
791;0.0073
794;0.0073
797;0.0065
800;0.0078