File: data/raw_data/uvvis/20171130_GrNH2_azodye/20171130_20min.csv
20171130_20min.csv;;Kemi1\Kemi01;30-11-2017 15:49:09;GENESYS 10S UV-Vis;2L9T161212;4.006
nm;A
200;3.3274
203;3.5418
206;3.6101
209;3.6297
212;3.6371
215;3.6531
218;3.6728
221;3.7166
224;3.8749
227;3.9111
230;3.958
233;3.8424
236;3.8657
239;3.8393
242;3.9069
245;3.8525
248;3.9065
251;3.8215
254;3.7673
257;3.7261
260;3.8069
263;3.7147
266;3.6755
269;3.6525
272;3.7006
275;3.6475
278;3.6547
281;3.6534
284;3.6752
287;3.6701
290;3.6774
293;3.6855
296;3.7241
299;3.5499
302;2.8339
305;2.407
308;2.2984
311;2.3591
314;2.528
317;2.751
320;2.9886
323;3.226
326;3.3733
329;3.4471
332;3.5142
335;3.5113
338;3.5089
341;3.4779
344;3.5286
347;3.4822
350;3.4522
353;3.4605
356;3.3961
359;3.2005
362;2.803
365;2.2528
368;1.7951
371;1.4175
374;1.1517
377;0.9808
380;0.8818
383;0.8237
386;0.8015
389;0.8017
392;0.8161
395;0.8396
398;0.8704
401;0.9032
404;0.9365
407;0.9687
410;1.0011
413;1.0284
416;1.0537
419;1.0746
422;1.0901
425;1.1005
428;1.1066
431;1.1078
434;1.1057
437;1.1001
440;1.0919
443;1.0812
446;1.0687
449;1.056
452;1.0424
455;1.0291
458;1.0175
461;1.0084
464;1.0013
467;0.9977
470;0.9973
473;1
476;1.0053
479;1.013
482;1.0219
485;1.0291
488;1.0375
491;1.0447
494;1.0486
497;1.0509
500;1.05
503;1.0457
506;1.0382
509;1.027
512;1.0115
515;0.9929
518;0.9711
521;0.9463
524;0.9168
527;0.8852
530;0.8526
533;0.8134
536;0.7754
539;0.7353
542;0.6926
545;0.6501
548;0.6062
551;0.5629
554;0.5203
557;0.4772
560;0.4359
563;0.3971
566;0.359
569;0.3235
572;0.2896
575;0.2593
578;0.2326
581;0.2069
584;0.1845
587;0.1637
590;0.1451
593;0.1282
596;0.1143
599;0.1023
602;0.0914
605;0.0817
608;0.0726
611;0.0657
614;0.0591
617;0.0541
620;0.049
623;0.0446
626;0.0409
629;0.0377
632;0.0355
635;0.0325
638;0.0303
641;0.0281
644;0.0268
647;0.025
650;0.0238
653;0.0229
656;0.0216
659;0.0202
662;0.0195
665;0.019
668;0.0185
671;0.017
674;0.0166
677;0.016
680;0.0148
683;0.015
686;0.0147
689;0.014
692;0.0139
695;0.0129
698;0.0126
701;0.012
704;0.0124
707;0.0117
710;0.0119
713;0.0105
716;0.0108
719;0.0107
722;0.01
725;0.0094
728;0.0098
731;0.0094
734;0.0098
737;0.0096
740;0.0094
743;0.0096
746;0.0087
749;0.0083
752;0.008
755;0.0081
758;0.0087
761;0.0079
764;0.0081
767;0.008
770;0.0074
773;0.0077
776;0.0071
779;0.008
782;0.0066
785;0.0065
788;0.0071
791;0.0068
794;0.0064
797;0.0066
800;0.0058