File: data/raw_data/uvvis/20171130_GrNH2_azodye/20171130_80min.csv
20171130_80min.csv;;Kemi1\Kemi01;30-11-2017 16:02:47;GENESYS 10S UV-Vis;2L9T161212;4.006
nm;A
200;3.2287
203;3.3966
206;3.4582
209;3.4292
212;3.4608
215;3.4228
218;3.4543
221;3.4603
224;3.5302
227;3.5656
230;3.6185
233;3.5608
236;3.5661
239;3.5381
242;3.5867
245;3.541
248;3.5727
251;3.5047
254;3.4739
257;3.4441
260;3.475
263;3.4058
266;3.3713
269;3.3386
272;3.3487
275;3.3192
278;3.3236
281;3.3172
284;3.3259
287;3.3442
290;3.3435
293;3.3488
296;3.3823
299;3.2208
302;2.5271
305;2.1315
308;2.0527
311;2.1327
314;2.3114
317;2.5377
320;2.7683
323;2.9928
326;3.1271
329;3.1917
332;3.2312
335;3.2435
338;3.2303
341;3.2147
344;3.2444
347;3.2037
350;3.1996
353;3.1791
356;3.153
359;2.982
362;2.6171
365;2.0857
368;1.6319
371;1.2564
374;0.9923
377;0.82
380;0.7159
383;0.6482
386;0.6109
389;0.5929
392;0.5858
395;0.5861
398;0.5919
401;0.6003
404;0.6098
407;0.6198
410;0.6303
413;0.64
416;0.649
419;0.6563
422;0.6614
425;0.6646
428;0.6662
431;0.6651
434;0.6633
437;0.6598
440;0.6551
443;0.6493
446;0.6427
449;0.6365
452;0.6296
455;0.6231
458;0.6175
461;0.613
464;0.6094
467;0.6076
470;0.607
473;0.6082
476;0.6104
479;0.6129
482;0.6161
485;0.6184
488;0.6213
491;0.6232
494;0.6238
497;0.6227
500;0.6198
503;0.6154
506;0.6092
509;0.5999
512;0.5886
515;0.5764
518;0.5621
521;0.5459
524;0.5278
527;0.5083
530;0.4888
533;0.4659
536;0.4436
539;0.42
542;0.3955
545;0.3716
548;0.3468
551;0.3216
554;0.2979
557;0.2739
560;0.2511
563;0.2294
566;0.2083
569;0.1898
572;0.1712
575;0.1554
578;0.1407
581;0.1276
584;0.1154
587;0.1028
590;0.0942
593;0.0845
596;0.0774
599;0.0709
602;0.0643
605;0.0599
608;0.0548
611;0.0502
614;0.0459
617;0.0427
620;0.0395
623;0.0369
626;0.0359
629;0.0332
632;0.0321
635;0.0301
638;0.0284
641;0.0266
644;0.025
647;0.0248
650;0.0242
653;0.0232
656;0.0219
659;0.0221
662;0.0208
665;0.0202
668;0.0205
671;0.0199
674;0.0195
677;0.0191
680;0.0185
683;0.0184
686;0.0189
689;0.0184
692;0.0184
695;0.0166
698;0.018
701;0.0175
704;0.0156
707;0.0153
710;0.0154
713;0.0153
716;0.0149
719;0.0149
722;0.0139
725;0.0136
728;0.0131
731;0.0129
734;0.013
737;0.0138
740;0.0141
743;0.0124
746;0.0122
749;0.0131
752;0.0119
755;0.0117
758;0.0121
761;0.0117
764;0.0114
767;0.0113
770;0.0115
773;0.0116
776;0.0106
779;0.0102
782;0.0101
785;0.0115
788;0.0108
791;0.0101
794;0.0091
797;0.0104
800;0.0107