File: data/raw_data/uvvis/20171130_GrNH2_azodye/20171130_0min.csv
20171130_0min.csv;;Kemi1\Kemi01;30-11-2017 15:44:02;GENESYS 10S UV-Vis;2L9T161212;4.006
nm;A
200;3.4785
203;3.6368
206;3.695
209;3.7435
212;3.7924
215;3.7934
218;3.7965
221;3.8253
224;4.0378
227;4.1019
230;4.1716
233;4.0982
236;4.1135
239;4.1273
242;4.2599
245;4.1823
248;4.172
251;4.0805
254;3.9691
257;3.9201
260;4.1173
263;3.9359
266;3.8909
269;3.8752
272;4.0174
275;3.8965
278;3.9251
281;3.9606
284;3.9674
287;4.0051
290;3.9958
293;3.994
296;4.027
299;3.9166
302;3.3644
305;2.91
308;2.752
311;2.766
314;2.8979
317;3.0812
320;3.2924
323;3.5089
326;3.63
329;3.754
332;3.7625
335;3.7693
338;3.7529
341;3.7611
344;3.8185
347;3.7694
350;3.7273
353;3.7079
356;3.6597
359;3.4708
362;3.1157
365;2.5849
368;2.1363
371;1.761
374;1.4906
377;1.3149
380;1.2125
383;1.1554
386;1.1374
389;1.1463
392;1.1727
395;1.2108
398;1.2579
401;1.3068
404;1.3561
407;1.4032
410;1.45
413;1.4893
416;1.5244
419;1.5525
422;1.5726
425;1.5846
428;1.5894
431;1.5881
434;1.5814
437;1.5703
440;1.5559
443;1.5379
446;1.5176
449;1.4973
452;1.4761
455;1.4558
458;1.438
461;1.4241
464;1.4133
467;1.408
470;1.4079
473;1.4126
476;1.4211
479;1.4324
482;1.4463
485;1.4584
488;1.472
491;1.4835
494;1.4909
497;1.4954
500;1.4957
503;1.4907
506;1.4811
509;1.4664
512;1.4463
515;1.4207
518;1.3898
521;1.355
524;1.3142
527;1.2698
530;1.2234
533;1.1677
536;1.1124
539;1.0554
542;0.9948
545;0.9328
548;0.8698
551;0.8067
554;0.7451
557;0.6828
560;0.6221
563;0.5652
566;0.5097
569;0.4575
572;0.4094
575;0.3652
578;0.3258
581;0.289
584;0.2562
587;0.2266
590;0.1999
593;0.1762
596;0.1556
599;0.1388
602;0.1227
605;0.1093
608;0.0971
611;0.0874
614;0.0786
617;0.0706
620;0.0641
623;0.0586
626;0.0536
629;0.0495
632;0.046
635;0.0436
638;0.0399
641;0.0381
644;0.0366
647;0.0341
650;0.0327
653;0.0314
656;0.03
659;0.0292
662;0.0281
665;0.0272
668;0.0258
671;0.0241
674;0.0237
677;0.0235
680;0.0226
683;0.0223
686;0.0214
689;0.021
692;0.0202
695;0.0196
698;0.0191
701;0.0193
704;0.0186
707;0.0187
710;0.018
713;0.0179
716;0.0179
719;0.017
722;0.0168
725;0.0164
728;0.0157
731;0.0157
734;0.015
737;0.0156
740;0.0152
743;0.015
746;0.0147
749;0.0136
752;0.0136
755;0.0138
758;0.0136
761;0.0129
764;0.0127
767;0.0126
770;0.0119
773;0.0116
776;0.0123
779;0.0117
782;0.0114
785;0.0118
788;0.0121
791;0.0112
794;0.0112
797;0.0103
800;0.0107