File: data/raw_data/uvvis/20171130_GrNH2_azodye/20171130_60min.csv
20171130_60min.csv;;Kemi1\Kemi01;30-11-2017 15:58:20;GENESYS 10S UV-Vis;2L9T161212;4.006
nm;A
200;3.2816
203;3.4211
206;3.4868
209;3.4912
212;3.4925
215;3.4774
218;3.5031
221;3.5245
224;3.6143
227;3.6147
230;3.6883
233;3.6019
236;3.6023
239;3.5697
242;3.6378
245;3.5812
248;3.62
251;3.5446
254;3.5229
257;3.4852
260;3.5143
263;3.4482
266;3.4043
269;3.3999
272;3.3976
275;3.3614
278;3.3662
281;3.3627
284;3.3641
287;3.4165
290;3.3954
293;3.4001
296;3.4258
299;3.2387
302;2.5071
305;2.0995
308;2.013
311;2.0917
314;2.2723
317;2.5019
320;2.7416
323;2.983
326;3.1411
329;3.2112
332;3.2621
335;3.2789
338;3.2693
341;3.269
344;3.2689
347;3.2351
350;3.2195
353;3.2113
356;3.1698
359;2.9817
362;2.5952
365;2.0506
368;1.5969
371;1.2246
374;0.963
377;0.7942
380;0.6942
383;0.6315
386;0.6007
389;0.5892
392;0.589
395;0.5969
398;0.6102
401;0.6251
404;0.6418
407;0.658
410;0.6744
413;0.6889
416;0.702
419;0.7128
422;0.7208
425;0.7261
428;0.7291
431;0.7294
434;0.7278
437;0.7246
440;0.7199
443;0.7138
446;0.707
449;0.7
452;0.6925
455;0.6851
458;0.6788
461;0.6735
464;0.6699
467;0.6678
470;0.668
473;0.6696
476;0.6727
479;0.6768
482;0.6813
485;0.6849
488;0.6891
491;0.6922
494;0.6939
497;0.6939
500;0.6918
503;0.6876
506;0.6807
509;0.6724
512;0.6606
515;0.6475
518;0.6318
521;0.6143
524;0.5946
527;0.573
530;0.5507
533;0.5244
536;0.4995
539;0.4732
542;0.4454
545;0.4179
548;0.3894
551;0.361
554;0.3338
557;0.307
560;0.2808
563;0.2557
566;0.2318
569;0.2098
572;0.1891
575;0.1702
578;0.1531
581;0.1375
584;0.1228
587;0.1102
590;0.0998
593;0.0882
596;0.0798
599;0.0724
602;0.0651
605;0.0591
608;0.0536
611;0.0494
614;0.0445
617;0.0414
620;0.0378
623;0.0344
626;0.0327
629;0.0309
632;0.0287
635;0.0269
638;0.0254
641;0.0234
644;0.0227
647;0.0214
650;0.0207
653;0.0196
656;0.019
659;0.0181
662;0.0175
665;0.0165
668;0.017
671;0.0158
674;0.0159
677;0.0157
680;0.0142
683;0.0142
686;0.0145
689;0.014
692;0.0137
695;0.0131
698;0.0135
701;0.013
704;0.0126
707;0.0115
710;0.0117
713;0.0113
716;0.0121
719;0.0106
722;0.0104
725;0.0098
728;0.0097
731;0.0094
734;0.0101
737;0.0112
740;0.0093
743;0.01
746;0.0081
749;0.0087
752;0.0095
755;0.0089
758;0.0085
761;0.0079
764;0.0086
767;0.0083
770;0.0074
773;0.0085
776;0.0081
779;0.0072
782;0.0085
785;0.0074
788;0.007
791;0.0064
794;0.0068
797;0.0066
800;0.0077