File: data/raw_data/uvvis/20170915 Azodye/2-Naphtol.csv
2-Naphtol.csv;;Kemi1\Kemi01;15-09-2017 11:54:14;GENESYS 10S UV-Vis;2L9T161212;4.006
nm;A
200;2.9158
203;3.0642
206;3.0879
209;3.0236
212;2.9751
215;2.9396
218;2.95
221;2.9502
224;2.9749
227;3.0083
230;3.0414
233;3.0142
236;3.0017
239;2.9886
242;3.0075
245;2.9746
248;2.9704
251;2.9088
254;2.8686
257;2.8241
260;2.8171
263;2.7704
266;2.7404
269;2.7244
272;2.7213
275;2.7057
278;2.711
281;2.7165
284;2.7241
287;2.7354
290;2.7424
293;2.7549
296;2.7756
299;2.7672
302;2.3621
305;1.9039
308;1.9334
311;2.1819
314;2.4788
317;2.6514
320;2.7152
323;2.7424
326;2.7356
329;2.7166
332;2.7203
335;2.7081
338;2.6999
341;2.6916
344;2.7042
347;2.6812
350;2.6611
353;2.659
356;2.6629
359;2.6382
362;2.6163
365;2.3018
368;1.734
371;1.1131
374;0.6578
377;0.3761
380;0.2133
383;0.1167
386;0.0648
389;0.0383
392;0.0243
395;0.0171
398;0.0136
401;0.0119
404;0.0107
407;0.0103
410;0.0098
413;0.0097
416;0.0096
419;0.0096
422;0.0094
425;0.0094
428;0.0095
431;0.0092
434;0.0094
437;0.0094
440;0.0096
443;0.0097
446;0.0098
449;0.0097
452;0.0096
455;0.0096
458;0.0093
461;0.009
464;0.0086
467;0.0083
470;0.0079
473;0.0076
476;0.0071
479;0.0069
482;0.0065
485;0.0062
488;0.0063
491;0.0059
494;0.0055
497;0.0056
500;0.0052
503;0.0051
506;0.0047
509;0.0047
512;0.0046
515;0.0043
518;0.0042
521;0.0039
524;0.0038
527;0.0033
530;0.0033
533;0.0034
536;0.0031
539;0.0029
542;0.0027
545;0.0026
548;0.0029
551;0.003
554;0.0023
557;0.0019
560;0.0018
563;0.0026
566;0.0022
569;0.0021
572;0.0016
575;0.0014
578;0.002
581;0.0022
584;0.0017
587;0.0015
590;0.0018
593;0.002
596;0.0015
599;0.0019
602;0.0019
605;0.0014
608;0.0015
611;0.0017
614;0.0008
617;0.0011
620;0.0006
623;0.0014
626;0.0002
629;0.0009
632;0.0008
635;0.0008
638;0.0006
641;0.0009
644;0.0004
647;0.0003
650;0.0007
653;0.0002
656;0.0003
659;0.0011
662;0.0006
665;0.0004
668;0.0006
671;0.0009
674;0.0011
677;0.0007
680;0.0009
683;0.002
686;0.002
689;0.0022
692;0.0028
695;0.002
698;0.0021
701;0.0021
704;0.0014
707;0.0018
710;0.0021
713;0.0011
716;0.0017
719;0.0011
722;0.001
725;0.0012
728;0.0015
731;0.0017
734;0.0023
737;0.0023
740;0.001
743;0.0014
746;0.0017
749;0.0013
752;0.0014
755;0.0017
758;0.0021
761;0.0015
764;0.0011
767;0.0018
770;0.0015
773;0.0013
776;0.0015
779;0.0013
782;0.0011
785;0.0006
788;0.002
791;0.0005
794;0.0018
797;0.0011
800;0.002