File: data/raw_data/uvvis/20170915 Azodye/Azo-dye 1-2.csv
Azo-dye 1-2.csv;;Kemi1\Kemi01;15-09-2017 13:15:47;GENESYS 10S UV-Vis;2L9T161212;4.006
nm;A
200;2.9139
203;3.0486
206;3.0917
209;3.0757
212;3.078
215;3.1036
218;3.1135
221;3.0935
224;3.1285
227;3.1147
230;3.1423
233;3.0717
236;3.0541
239;3.0336
242;3.0683
245;3.0413
248;3.0574
251;3.0129
254;2.953
257;2.8391
260;2.9098
263;2.9405
266;2.9811
269;2.9915
272;2.9991
275;2.9909
278;2.9999
281;2.9882
284;2.9956
287;3.0288
290;3.0388
293;3.0376
296;3.06
299;2.8161
302;2.398
305;2.1151
308;1.924
311;1.776
314;1.6491
317;1.5575
320;1.4993
323;1.4724
326;1.4771
329;1.5081
332;1.5557
335;1.603
338;1.6384
341;1.6535
344;1.6519
347;1.6208
350;1.5457
353;1.4156
356;1.2361
359;1.0166
362;0.7932
365;0.5866
368;0.4245
371;0.2979
374;0.21
377;0.1536
380;0.1195
383;0.0958
386;0.0801
389;0.0704
392;0.064
395;0.0594
398;0.0571
401;0.0548
404;0.054
407;0.0534
410;0.0534
413;0.0532
416;0.0529
419;0.0527
422;0.0525
425;0.0518
428;0.051
431;0.0495
434;0.0481
437;0.0468
440;0.0447
443;0.0431
446;0.0416
449;0.0401
452;0.0387
455;0.0371
458;0.0352
461;0.0338
464;0.0326
467;0.0312
470;0.0305
473;0.0298
476;0.0295
479;0.0292
482;0.0292
485;0.0292
488;0.0295
491;0.0292
494;0.029
497;0.0289
500;0.0285
503;0.0281
506;0.0283
509;0.028
512;0.0278
515;0.0261
518;0.0257
521;0.0252
524;0.0243
527;0.0235
530;0.0225
533;0.0211
536;0.0197
539;0.0184
542;0.0174
545;0.0155
548;0.0144
551;0.0137
554;0.0114
557;0.01
560;0.0089
563;0.0081
566;0.0075
569;0.0067
572;0.0062
575;0.0054
578;0.0036
581;0.0033
584;0.0038
587;0.0035
590;0.0029
593;0.0012
596;0.0022
599;0.0008
602;0.0008
605;0.0007
608;-0.0003
611;0.0009
614;0.0012
617;0.0008
620;0.0004
623;0
626;0.0004
629;0.0001
632;0.0007
635;-0.001
638;0.0005
641;0.0006
644;-0.0014
647;0.0007
650;0.0003
653;0.0001
656;0
659;-0.0004
662;0.0001
665;0.0002
668;-0.0006
671;-0.0006
674;-0.0017
677;-0.0014
680;-0.0019
683;-0.0019
686;-0.0022
689;-0.0009
692;-0.0007
695;-0.002
698;-0.0023
701;-0.0021
704;-0.0007
707;-0.0012
710;-0.0006
713;-0.0016
716;-0.0008
719;-0.0007
722;-0.0023
725;-0.0007
728;-0.0016
731;-0.0005
734;-0.0008
737;-0.0004
740;-0.0012
743;-0.0012
746;-0.0007
749;-0.0009
752;-0.0008
755;-0.0017
758;-0.0009
761;-0.002
764;-0.0015
767;-0.0019
770;-0.0009
773;-0.0012
776;-0.0009
779;-0.0008
782;-0.0009
785;-0.002
788;-0.0006
791;-0.002
794;-0.0017
797;-0.0012
800;-0.0023