File: data/raw_data/uvvis/20170915 Azodye/Azo-dye 1-0.csv
Azo-dye.csv;;Kemi1\Kemi01;15-09-2017 11:48:50;GENESYS 10S UV-Vis;2L9T161212;4.006
nm;A
200;2.9996
203;3.1575
206;3.2074
209;3.1725
212;3.1969
215;3.228
218;3.2379
221;3.244
224;3.2935
227;3.2873
230;3.316
233;3.2476
236;3.2373
239;3.2126
242;3.2353
245;3.2088
248;3.2316
251;3.1918
254;3.1981
257;3.2054
260;3.2632
263;3.2164
266;3.1911
269;3.1644
272;3.1927
275;3.1602
278;3.1615
281;3.1555
284;3.1861
287;3.2295
290;3.2332
293;3.2365
296;3.3288
299;3.4372
302;3.5099
305;3.5111
308;3.5198
311;3.423
314;3.3371
317;3.2344
320;3.1635
323;3.1308
326;3.0794
329;3.0139
332;2.9893
335;2.9725
338;2.9425
341;2.916
344;2.9313
347;2.8941
350;2.8793
353;2.8642
356;2.8461
359;2.7138
362;2.3772
365;1.8276
368;1.3554
371;0.9632
374;0.6839
377;0.5029
380;0.3892
383;0.312
386;0.2621
389;0.2307
392;0.2091
395;0.1949
398;0.1854
401;0.1804
404;0.1769
407;0.1752
410;0.1743
413;0.1738
416;0.1735
419;0.1731
422;0.1721
425;0.1703
428;0.1676
431;0.1635
434;0.1589
437;0.1538
440;0.1488
443;0.1437
446;0.1387
449;0.1338
452;0.1286
455;0.1232
458;0.1178
461;0.1131
464;0.1084
467;0.1045
470;0.102
473;0.1003
476;0.0989
479;0.0989
482;0.0991
485;0.0994
488;0.0999
491;0.1
494;0.1004
497;0.1004
500;0.1001
503;0.099
506;0.0986
509;0.0971
512;0.0952
515;0.0938
518;0.0917
521;0.0893
524;0.0868
527;0.0841
530;0.0811
533;0.0772
536;0.0735
539;0.0696
542;0.0651
545;0.0606
548;0.0559
551;0.0519
554;0.0471
557;0.043
560;0.0389
563;0.0352
566;0.0323
569;0.0289
572;0.0263
575;0.0238
578;0.0218
581;0.0199
584;0.0176
587;0.0166
590;0.0148
593;0.014
596;0.0123
599;0.0115
602;0.01
605;0.0096
608;0.0085
611;0.0081
614;0.0076
617;0.0071
620;0.0065
623;0.0066
626;0.0056
629;0.0052
632;0.0056
635;0.0049
638;0.0051
641;0.0048
644;0.0043
647;0.0044
650;0.0038
653;0.0039
656;0.0039
659;0.0038
662;0.0037
665;0.0039
668;0.0037
671;0.0032
674;0.0034
677;0.0031
680;0.0033
683;0.0032
686;0.0031
689;0.0029
692;0.0031
695;0.0024
698;0.0033
701;0.0031
704;0.0029
707;0.002
710;0.0029
713;0.0025
716;0.0027
719;0.0029
722;0.0028
725;0.0029
728;0.0026
731;0.0027
734;0.0025
737;0.003
740;0.0025
743;0.0027
746;0.0019
749;0.002
752;0.0024
755;0.0022
758;0.0025
761;0.0024
764;0.0019
767;0.0024
770;0.0018
773;0.0022
776;0.0017
779;0.0018
782;0.0022
785;0.0012
788;0.0025
791;0.0016
794;0.002
797;0.002
800;0.0022