File: data/raw_data/uvvis/20170915 Azodye/Azo-dye 1-20.csv
Azo-dye 1-20.csv;;Kemi1\Kemi01;15-09-2017 13:29:30;GENESYS 10S UV-Vis;2L9T161212;4.006
nm;A
200;2.704
203;2.8443
206;2.8861
209;2.8163
212;2.6612
215;2.4063
218;2.2986
221;2.3411
224;2.4579
227;2.6539
230;2.8539
233;2.8584
236;2.8449
239;2.7723
242;2.7501
245;2.2779
248;1.3516
251;0.7615
254;0.529
257;0.4674
260;0.4814
263;0.5119
266;0.5699
269;0.6458
272;0.6915
275;0.7153
278;0.7724
281;0.8333
284;0.795
287;0.7231
290;0.7072
293;0.6864
296;0.5653
299;0.4388
302;0.353
305;0.3072
308;0.2768
311;0.2536
314;0.2338
317;0.2198
320;0.2109
323;0.2069
326;0.2076
329;0.213
332;0.2201
335;0.2275
338;0.233
341;0.2357
344;0.2356
347;0.231
350;0.2202
353;0.1999
356;0.1727
359;0.1399
362;0.1075
365;0.0774
368;0.0539
371;0.0357
374;0.0233
377;0.015
380;0.0104
383;0.0065
386;0.0043
389;0.0034
392;0.0026
395;0.0022
398;0.0022
401;0.0016
404;0.0019
407;0.002
410;0.0019
413;0.0022
416;0.0021
419;0.0024
422;0.0026
425;0.0025
428;0.0023
431;0.0023
434;0.0022
437;0.0018
440;0.002
443;0.002
446;0.0019
449;0.0019
452;0.0017
455;0.0016
458;0.0017
461;0.0015
464;0.0013
467;0.001
470;0.0013
473;0.0011
476;0.0013
479;0.0013
482;0.0013
485;0.0009
488;0.0014
491;0.0014
494;0.0009
497;0.0011
500;0.0017
503;0.0011
506;0.0017
509;0.0006
512;0.001
515;0.0011
518;0.0018
521;0.0006
524;0.0014
527;0.0008
530;0.0009
533;0.0008
536;0.0007
539;0
542;-0.0002
545;0.0007
548;0.0005
551;-0.0007
554;0
557;0.0001
560;-0.0007
563;-0.0009
566;-0.0004
569;-0.001
572;-0.0012
575;-0.0012
578;-0.0016
581;-0.0011
584;-0.0012
587;-0.0015
590;-0.0016
593;-0.0007
596;-0.0015
599;-0.001
602;-0.002
605;-0.0013
608;0.0002
611;-0.0011
614;-0.0016
617;-0.0011
620;-0.0016
623;-0.0009
626;-0.0017
629;-0.0007
632;0.0004
635;-0.0024
638;-0.0013
641;-0.0021
644;-0.0023
647;-0.0024
650;-0.0021
653;-0.0014
656;-0.002
659;0.0003
662;-0.0009
665;-0.0008
668;-0.0013
671;-0.0002
674;-0.0005
677;-0.0013
680;-0.0017
683;-0.0001
686;-0.0019
689;-0.0002
692;-0.0013
695;-0.0015
698;-0.0012
701;-0.0021
704;-0.0011
707;-0.0006
710;-0.0013
713;-0.0013
716;-0.0018
719;-0.0021
722;-0.0019
725;-0.0018
728;-0.0017
731;-0.0011
734;-0.0017
737;-0.0021
740;-0.0014
743;-0.0025
746;-0.0019
749;-0.002
752;-0.0017
755;-0.0022
758;-0.001
761;-0.0012
764;-0.0015
767;-0.0011
770;-0.0022
773;-0.0019
776;-0.0018
779;-0.0023
782;-0.0018
785;-0.0021
788;-0.0027
791;-0.0018
794;-0.0014
797;-0.0013
800;-0.0001