File: data/raw_data/uvvis/20170915 Azodye/Azo-dye 1-10.csv
Azo-dye 1-10.csv;;Kemi1\Kemi01;15-09-2017 13:24:49;GENESYS 10S UV-Vis;2L9T161212;4.006
nm;A
200;2.7947
203;2.9436
206;2.9943
209;2.9777
212;2.9633
215;2.9694
218;2.9802
221;2.9871
224;3.0064
227;3.0302
230;3.062
233;2.9827
236;2.9556
239;2.9189
242;2.9421
245;2.8463
248;2.3372
251;1.3925
254;0.982
257;0.8705
260;0.8964
263;0.9525
266;1.059
269;1.1976
272;1.2817
275;1.3239
278;1.4265
281;1.5341
284;1.4648
287;1.3363
290;1.3063
293;1.2675
296;1.0453
299;0.8124
302;0.6559
305;0.5716
308;0.5164
311;0.4747
314;0.4391
317;0.4141
320;0.3981
323;0.3907
326;0.3927
329;0.4016
332;0.4157
335;0.4294
338;0.4401
341;0.4454
344;0.4446
347;0.4361
350;0.4154
353;0.3782
356;0.3282
359;0.2675
362;0.2068
365;0.151
368;0.1067
371;0.0729
374;0.0494
377;0.0339
380;0.0251
383;0.0185
386;0.0145
389;0.0122
392;0.0106
395;0.0097
398;0.0089
401;0.0086
404;0.0085
407;0.0084
410;0.0083
413;0.0086
416;0.0088
419;0.0088
422;0.0088
425;0.0088
428;0.0085
431;0.0081
434;0.0081
437;0.0076
440;0.0074
443;0.0071
446;0.0066
449;0.0065
452;0.006
455;0.0057
458;0.0052
461;0.0054
464;0.005
467;0.0048
470;0.0045
473;0.0043
476;0.0041
479;0.0045
482;0.0047
485;0.004
488;0.0047
491;0.0049
494;0.0048
497;0.0048
500;0.0043
503;0.0049
506;0.0043
509;0.0041
512;0.0047
515;0.0044
518;0.0041
521;0.004
524;0.0034
527;0.0033
530;0.0033
533;0.0029
536;0.0018
539;0.0015
542;0.0016
545;0.0009
548;0.0014
551;0.0014
554;0
557;-0.0003
560;-0.0008
563;-0.0009
566;-0.0007
569;-0.0013
572;-0.0012
575;-0.0015
578;-0.0019
581;-0.0021
584;-0.0023
587;-0.0025
590;-0.0022
593;-0.0022
596;-0.0019
599;-0.0026
602;-0.0024
605;-0.0024
608;-0.0019
611;-0.0016
614;-0.0026
617;-0.0031
620;-0.0025
623;-0.0026
626;-0.0026
629;-0.0032
632;-0.0032
635;-0.0031
638;-0.0033
641;-0.0033
644;-0.0037
647;-0.0035
650;-0.0032
653;-0.0032
656;-0.0033
659;-0.0029
662;-0.0033
665;-0.0033
668;-0.0029
671;-0.0027
674;-0.0015
677;-0.0028
680;-0.0023
683;-0.001
686;-0.0024
689;-0.0023
692;-0.0026
695;-0.0024
698;-0.002
701;-0.0025
704;-0.0021
707;-0.0026
710;-0.0024
713;-0.0021
716;-0.002
719;-0.0018
722;-0.0025
725;-0.0017
728;-0.0028
731;-0.0025
734;-0.0012
737;-0.0025
740;-0.0021
743;-0.0024
746;-0.0024
749;-0.0031
752;-0.0018
755;-0.0022
758;-0.0019
761;-0.0009
764;-0.0017
767;-0.0028
770;-0.0023
773;-0.0017
776;-0.0017
779;-0.0021
782;-0.0021
785;-0.0018
788;-0.0027
791;-0.0019
794;-0.0022
797;-0.0022
800;-0.0007