File: data/raw_data/uvvis/20170915 Azodye/Azo-dye 1-5.csv
Azo-dye 1-5.csv;;Kemi1\Kemi01;15-09-2017 13:20:28;GENESYS 10S UV-Vis;2L9T161212;4.006
nm;A
200;2.8697
203;2.9865
206;3.0541
209;3.0342
212;3.0421
215;3.049
218;3.0642
221;3.0655
224;3.0773
227;3.0708
230;3.0972
233;3.0334
236;3.0134
239;2.9895
242;3.0116
245;2.9731
248;2.9808
251;2.4163
254;1.7998
257;1.6071
260;1.6568
263;1.7527
266;1.935
269;2.1602
272;2.293
275;2.3479
278;2.4823
281;2.6013
284;2.5312
287;2.3729
290;2.3296
293;2.2683
296;1.9096
299;1.5006
302;1.217
305;1.063
308;0.9623
311;0.8863
314;0.8215
317;0.7757
320;0.7464
323;0.7331
326;0.7362
329;0.7536
332;0.7783
335;0.8042
338;0.8238
341;0.8326
344;0.8316
347;0.8162
350;0.7777
353;0.7092
356;0.6168
359;0.505
362;0.3917
365;0.2889
368;0.2072
371;0.1441
374;0.1005
377;0.0722
380;0.0553
383;0.0433
386;0.036
389;0.0309
392;0.0277
395;0.0258
398;0.0246
401;0.024
404;0.0233
407;0.0232
410;0.0231
413;0.0231
416;0.023
419;0.023
422;0.0231
425;0.0229
428;0.0224
431;0.0219
434;0.0212
437;0.0205
440;0.0196
443;0.0191
446;0.0183
449;0.0176
452;0.0166
455;0.0161
458;0.0155
461;0.0147
464;0.0139
467;0.0135
470;0.0127
473;0.0129
476;0.0129
479;0.0128
482;0.0129
485;0.0129
488;0.0129
491;0.013
494;0.0124
497;0.0124
500;0.0128
503;0.0122
506;0.0116
509;0.012
512;0.0114
515;0.0116
518;0.0115
521;0.0108
524;0.0099
527;0.0101
530;0.0097
533;0.0093
536;0.0083
539;0.0075
542;0.007
545;0.0061
548;0.0061
551;0.0049
554;0.0045
557;0.0036
560;0.0031
563;0.0024
566;0.0017
569;0.0015
572;0.0015
575;0.0007
578;0.0003
581;0.0011
584;0.0001
587;-0.0006
590;-0.0003
593;-0.0004
596;-0.0003
599;-0.0006
602;-0.0004
605;-0.0006
608;-0.0014
611;-0.002
614;-0.0015
617;-0.0012
620;-0.0012
623;-0.0011
626;-0.0018
629;-0.0018
632;-0.0013
635;-0.0009
638;-0.0015
641;-0.0016
644;-0.002
647;-0.0023
650;-0.0019
653;-0.0021
656;-0.002
659;-0.0015
662;-0.0012
665;-0.0016
668;-0.0019
671;-0.0018
674;-0.0016
677;-0.0021
680;-0.0007
683;-0.0012
686;-0.0021
689;-0.0016
692;-0.0017
695;-0.0015
698;-0.0008
701;-0.0014
704;-0.0019
707;-0.0021
710;-0.0026
713;-0.0026
716;-0.0017
719;-0.0027
722;-0.0016
725;-0.0025
728;-0.0021
731;-0.0025
734;-0.0026
737;-0.0018
740;-0.0018
743;-0.003
746;-0.0027
749;-0.002
752;-0.0021
755;-0.0018
758;-0.0016
761;-0.0012
764;-0.0018
767;-0.0014
770;-0.0017
773;-0.0017
776;-0.0018
779;-0.002
782;-0.002
785;-0.002
788;-0.002
791;-0.0013
794;-0.0021
797;-0.0022
800;-0.0011