File: data/raw_data/electrochemistry/20170904_Gr-NH2_prod_for_Radisurf/30 min cv 1.txt
Sept. 4, 2017   11:12:48
Cyclic Voltammetry
File: 30 min cv 1
Data Source:  Experiment
Instrument Model:  CHI601D
Header:
Note:

Init E (V) = 0.2
High E (V) = 0.2
Low E (V) = -1
Final E (V) = 0.2
Init P/N = N
Scan Rate (V/s) = 0.1
Segment = 2
Sample Interval (V) = 0.001
Quiet Time (sec) = 2
Sensitivity (A/V) = 1e-5

Potential/V, Current/A

Segment 1:
0.200, -2.109e-8
0.196, -3.767e-8
0.192, -4.305e-8
0.188, -4.714e-8
0.184, -5.117e-8
0.180, -5.476e-8
0.176, -5.796e-8
0.172, -6.091e-8
0.168, -6.456e-8
0.164, -6.762e-8
0.160, -7.072e-8
0.156, -7.377e-8
0.152, -7.770e-8
0.148, -8.099e-8
0.144, -8.372e-8
0.140, -8.704e-8
0.136, -9.086e-8
0.132, -9.438e-8
0.128, -9.806e-8
0.124, -1.017e-7
0.120, -1.058e-7
0.116, -1.093e-7
0.112, -1.128e-7
0.108, -1.168e-7
0.104, -1.211e-7
0.100, -1.252e-7
0.096, -1.296e-7
0.092, -1.333e-7
0.088, -1.378e-7
0.084, -1.420e-7
0.080, -1.462e-7
0.076, -1.513e-7
0.072, -1.560e-7
0.068, -1.602e-7
0.064, -1.652e-7
0.060, -1.699e-7
0.056, -1.759e-7
0.052, -1.805e-7
0.048, -1.850e-7
0.044, -1.904e-7
0.040, -1.960e-7
0.036, -2.021e-7
0.032, -2.076e-7
0.028, -2.130e-7
0.024, -2.191e-7
0.020, -2.254e-7
0.016, -2.308e-7
0.012, -2.368e-7
0.008, -2.432e-7
0.004, -2.496e-7
-0.000, -2.558e-7
-0.004, -2.625e-7
-0.008, -2.693e-7
-0.012, -2.763e-7
-0.016, -2.829e-7
-0.020, -2.897e-7
-0.024, -2.970e-7
-0.028, -3.040e-7
-0.032, -3.116e-7
-0.036, -3.183e-7
-0.040, -3.267e-7
-0.044, -3.336e-7
-0.048, -3.406e-7
-0.052, -3.490e-7
-0.056, -3.570e-7
-0.060, -3.647e-7
-0.064, -3.732e-7
-0.068, -3.807e-7
-0.072, -3.893e-7
-0.076, -3.976e-7
-0.080, -4.062e-7
-0.084, -4.146e-7
-0.088, -4.240e-7
-0.092, -4.326e-7
-0.096, -4.414e-7
-0.100, -4.504e-7
-0.104, -4.604e-7
-0.108, -4.698e-7
-0.112, -4.789e-7
-0.116, -4.883e-7
-0.120, -4.987e-7
-0.124, -5.084e-7
-0.128, -5.190e-7
-0.132, -5.285e-7
-0.136, -5.394e-7
-0.140, -5.497e-7
-0.144, -5.606e-7
-0.148, -5.720e-7
-0.152, -5.830e-7
-0.156, -5.944e-7
-0.160, -6.057e-7
-0.164, -6.181e-7
-0.168, -6.299e-7
-0.172, -6.417e-7
-0.176, -6.536e-7
-0.180, -6.664e-7
-0.184, -6.794e-7
-0.188, -6.919e-7
-0.192, -7.051e-7
-0.196, -7.184e-7
-0.200, -7.322e-7
-0.204, -7.453e-7
-0.208, -7.592e-7
-0.212, -7.730e-7
-0.216, -7.883e-7
-0.220, -8.020e-7
-0.224, -8.169e-7
-0.228, -8.310e-7
-0.232, -8.465e-7
-0.236, -8.620e-7
-0.240, -8.768e-7
-0.244, -8.927e-7
-0.248, -9.084e-7
-0.252, -9.240e-7
-0.256, -9.403e-7
-0.260, -9.562e-7
-0.264, -9.731e-7
-0.268, -9.896e-7
-0.272, -1.006e-6
-0.276, -1.023e-6
-0.280, -1.041e-6
-0.284, -1.058e-6
-0.288, -1.075e-6
-0.292, -1.093e-6
-0.296, -1.112e-6
-0.300, -1.130e-6
-0.304, -1.147e-6
-0.308, -1.166e-6
-0.312, -1.185e-6
-0.316, -1.204e-6
-0.320, -1.223e-6
-0.324, -1.243e-6
-0.328, -1.263e-6
-0.332, -1.283e-6
-0.336, -1.303e-6
-0.340, -1.324e-6
-0.344, -1.345e-6
-0.348, -1.365e-6
-0.352, -1.387e-6
-0.356, -1.408e-6
-0.360, -1.430e-6
-0.364, -1.452e-6
-0.368, -1.474e-6
-0.372, -1.496e-6
-0.376, -1.519e-6
-0.380, -1.542e-6
-0.384, -1.565e-6
-0.388, -1.589e-6
-0.392, -1.613e-6
-0.396, -1.637e-6
-0.400, -1.661e-6
-0.404, -1.685e-6
-0.408, -1.711e-6
-0.412, -1.735e-6
-0.416, -1.760e-6
-0.420, -1.785e-6
-0.424, -1.812e-6
-0.428, -1.837e-6
-0.432, -1.863e-6
-0.436, -1.890e-6
-0.440, -1.917e-6
-0.444, -1.944e-6
-0.448, -1.972e-6
-0.452, -1.999e-6
-0.456, -2.028e-6
-0.460, -2.055e-6
-0.464, -2.084e-6
-0.468, -2.113e-6
-0.472, -2.142e-6
-0.476, -2.171e-6
-0.480, -2.201e-6
-0.484, -2.231e-6
-0.488, -2.262e-6
-0.492, -2.293e-6
-0.496, -2.323e-6
-0.500, -2.355e-6
-0.504, -2.386e-6
-0.508, -2.418e-6
-0.512, -2.450e-6
-0.516, -2.483e-6
-0.520, -2.517e-6
-0.524, -2.550e-6
-0.528, -2.584e-6
-0.532, -2.618e-6
-0.536, -2.652e-6
-0.540, -2.686e-6
-0.544, -2.721e-6
-0.548, -2.755e-6
-0.552, -2.790e-6
-0.556, -2.825e-6
-0.560, -2.859e-6
-0.564, -2.895e-6
-0.568, -2.929e-6
-0.572, -2.964e-6
-0.576, -2.999e-6
-0.580, -3.033e-6
-0.584, -3.069e-6
-0.588, -3.102e-6
-0.592, -3.136e-6
-0.596, -3.171e-6
-0.600, -3.205e-6
-0.604, -3.239e-6
-0.608, -3.272e-6
-0.612, -3.306e-6
-0.616, -3.340e-6
-0.620, -3.374e-6
-0.624, -3.407e-6
-0.628, -3.441e-6
-0.632, -3.475e-6
-0.636, -3.510e-6
-0.640, -3.542e-6
-0.644, -3.576e-6
-0.648, -3.611e-6
-0.652, -3.644e-6
-0.656, -3.678e-6
-0.660, -3.712e-6
-0.664, -3.747e-6
-0.668, -3.781e-6
-0.672, -3.815e-6
-0.676, -3.850e-6
-0.680, -3.885e-6
-0.684, -3.920e-6
-0.688, -3.956e-6
-0.692, -3.990e-6
-0.696, -4.027e-6
-0.700, -4.063e-6
-0.704, -4.099e-6
-0.708, -4.135e-6
-0.712, -4.171e-6
-0.716, -4.209e-6
-0.720, -4.245e-6
-0.724, -4.282e-6
-0.728, -4.320e-6
-0.732, -4.357e-6
-0.736, -4.396e-6
-0.740, -4.433e-6
-0.744, -4.472e-6
-0.748, -4.510e-6
-0.752, -4.549e-6
-0.756, -4.589e-6
-0.760, -4.628e-6
-0.764, -4.667e-6
-0.768, -4.707e-6
-0.772, -4.746e-6
-0.776, -4.787e-6
-0.780, -4.827e-6
-0.784, -4.868e-6
-0.788, -4.908e-6
-0.792, -4.949e-6
-0.796, -4.990e-6
-0.800, -5.032e-6
-0.804, -5.074e-6
-0.808, -5.116e-6
-0.812, -5.158e-6
-0.816, -5.200e-6
-0.820, -5.243e-6
-0.824, -5.285e-6
-0.828, -5.328e-6
-0.832, -5.371e-6
-0.836, -5.414e-6
-0.840, -5.457e-6
-0.844, -5.501e-6
-0.848, -5.544e-6
-0.852, -5.588e-6
-0.856, -5.632e-6
-0.860, -5.677e-6
-0.864, -5.721e-6
-0.868, -5.766e-6
-0.872, -5.812e-6
-0.876, -5.856e-6
-0.880, -5.902e-6
-0.884, -5.948e-6
-0.888, -5.995e-6
-0.892, -6.041e-6
-0.896, -6.088e-6
-0.900, -6.134e-6
-0.904, -6.182e-6
-0.908, -6.230e-6
-0.912, -6.277e-6
-0.916, -6.326e-6
-0.920, -6.375e-6
-0.924, -6.423e-6
-0.928, -6.472e-6
-0.932, -6.522e-6
-0.936, -6.573e-6
-0.940, -6.623e-6
-0.944, -6.675e-6
-0.948, -6.727e-6
-0.952, -6.780e-6
-0.956, -6.833e-6
-0.960, -6.885e-6
-0.964, -6.940e-6
-0.968, -6.995e-6
-0.972, -7.049e-6
-0.976, -7.107e-6
-0.980, -7.165e-6
-0.984, -7.224e-6
-0.988, -7.284e-6
-0.992, -7.345e-6
-0.996, -7.408e-6
-0.999, -7.456e-6

Segment 2:
-1.000, -7.452e-6
-0.996, -7.169e-6
-0.992, -6.925e-6
-0.988, -6.707e-6
-0.984, -6.508e-6
-0.980, -6.325e-6
-0.976, -6.156e-6
-0.972, -5.997e-6
-0.968, -5.845e-6
-0.964, -5.702e-6
-0.960, -5.566e-6
-0.956, -5.437e-6
-0.952, -5.312e-6
-0.948, -5.192e-6
-0.944, -5.078e-6
-0.940, -4.968e-6
-0.936, -4.861e-6
-0.932, -4.758e-6
-0.928, -4.658e-6
-0.924, -4.562e-6
-0.920, -4.470e-6
-0.916, -4.380e-6
-0.912, -4.293e-6
-0.908, -4.208e-6
-0.904, -4.125e-6
-0.900, -4.046e-6
-0.896, -3.967e-6
-0.892, -3.892e-6
-0.888, -3.818e-6
-0.884, -3.746e-6
-0.880, -3.676e-6
-0.876, -3.607e-6
-0.872, -3.540e-6
-0.868, -3.474e-6
-0.864, -3.410e-6
-0.860, -3.347e-6
-0.856, -3.286e-6
-0.852, -3.226e-6
-0.848, -3.168e-6
-0.844, -3.111e-6
-0.840, -3.055e-6
-0.836, -3.000e-6
-0.832, -2.946e-6
-0.828, -2.894e-6
-0.824, -2.842e-6
-0.820, -2.791e-6
-0.816, -2.741e-6
-0.812, -2.692e-6
-0.808, -2.644e-6
-0.804, -2.597e-6
-0.800, -2.551e-6
-0.796, -2.505e-6
-0.792, -2.461e-6
-0.788, -2.417e-6
-0.784, -2.375e-6
-0.780, -2.333e-6
-0.776, -2.291e-6
-0.772, -2.250e-6
-0.768, -2.210e-6
-0.764, -2.170e-6
-0.760, -2.131e-6
-0.756, -2.093e-6
-0.752, -2.055e-6
-0.748, -2.019e-6
-0.744, -1.982e-6
-0.740, -1.946e-6
-0.736, -1.911e-6
-0.732, -1.876e-6
-0.728, -1.841e-6
-0.724, -1.807e-6
-0.720, -1.775e-6
-0.716, -1.742e-6
-0.712, -1.710e-6
-0.708, -1.678e-6
-0.704, -1.647e-6
-0.700, -1.616e-6
-0.696, -1.585e-6
-0.692, -1.556e-6
-0.688, -1.526e-6
-0.684, -1.497e-6
-0.680, -1.468e-6
-0.676, -1.440e-6
-0.672, -1.412e-6
-0.668, -1.385e-6
-0.664, -1.357e-6
-0.660, -1.331e-6
-0.656, -1.304e-6
-0.652, -1.278e-6
-0.648, -1.252e-6
-0.644, -1.227e-6
-0.640, -1.202e-6
-0.636, -1.177e-6
-0.632, -1.152e-6
-0.628, -1.128e-6
-0.624, -1.105e-6
-0.620, -1.081e-6
-0.616, -1.059e-6
-0.612, -1.035e-6
-0.608, -1.013e-6
-0.604, -9.904e-7
-0.600, -9.681e-7
-0.596, -9.470e-7
-0.592, -9.255e-7
-0.588, -9.045e-7
-0.584, -8.837e-7
-0.580, -8.639e-7
-0.576, -8.431e-7
-0.572, -8.230e-7
-0.568, -8.035e-7
-0.564, -7.844e-7
-0.560, -7.654e-7
-0.556, -7.462e-7
-0.552, -7.282e-7
-0.548, -7.096e-7
-0.544, -6.916e-7
-0.540, -6.741e-7
-0.536, -6.561e-7
-0.532, -6.390e-7
-0.528, -6.224e-7
-0.524, -6.051e-7
-0.520, -5.883e-7
-0.516, -5.726e-7
-0.512, -5.564e-7
-0.508, -5.408e-7
-0.504, -5.252e-7
-0.500, -5.102e-7
-0.496, -4.951e-7
-0.492, -4.803e-7
-0.488, -4.658e-7
-0.484, -4.512e-7
-0.480, -4.373e-7
-0.476, -4.237e-7
-0.472, -4.097e-7
-0.468, -3.960e-7
-0.464, -3.830e-7
-0.460, -3.703e-7
-0.456, -3.574e-7
-0.452, -3.446e-7
-0.448, -3.325e-7
-0.444, -3.203e-7
-0.440, -3.082e-7
-0.436, -2.961e-7
-0.432, -2.848e-7
-0.428, -2.735e-7
-0.424, -2.619e-7
-0.420, -2.507e-7
-0.416, -2.397e-7
-0.412, -2.294e-7
-0.408, -2.183e-7
-0.404, -2.081e-7
-0.400, -1.976e-7
-0.396, -1.875e-7
-0.392, -1.780e-7
-0.388, -1.677e-7
-0.384, -1.581e-7
-0.380, -1.490e-7
-0.376, -1.389e-7
-0.372, -1.301e-7
-0.368, -1.209e-7
-0.364, -1.119e-7
-0.360, -1.031e-7
-0.356, -9.414e-8
-0.352, -8.540e-8
-0.348, -7.756e-8
-0.344, -6.879e-8
-0.340, -6.075e-8
-0.336, -5.301e-8
-0.332, -4.494e-8
-0.328, -3.628e-8
-0.324, -2.912e-8
-0.320, -2.121e-8
-0.316, -1.382e-8
-0.312, -6.106e-9
-0.308, 1.308e-9
-0.304, 8.310e-9
-0.300, 1.567e-8
-0.296, 2.301e-8
-0.292, 2.972e-8
-0.288, 3.672e-8
-0.284, 4.313e-8
-0.280, 5.025e-8
-0.276, 5.651e-8
-0.272, 6.294e-8
-0.268, 6.916e-8
-0.264, 7.636e-8
-0.260, 8.254e-8
-0.256, 8.865e-8
-0.252, 9.476e-8
-0.248, 1.013e-7
-0.244, 1.071e-7
-0.240, 1.129e-7
-0.236, 1.188e-7
-0.232, 1.256e-7
-0.228, 1.314e-7
-0.224, 1.371e-7
-0.220, 1.428e-7
-0.216, 1.492e-7
-0.212, 1.550e-7
-0.208, 1.604e-7
-0.204, 1.658e-7
-0.200, 1.721e-7
-0.196, 1.781e-7
-0.192, 1.837e-7
-0.188, 1.889e-7
-0.184, 1.948e-7
-0.180, 2.001e-7
-0.176, 2.054e-7
-0.172, 2.108e-7
-0.168, 2.161e-7
-0.164, 2.218e-7
-0.160, 2.271e-7
-0.156, 2.327e-7
-0.152, 2.380e-7
-0.148, 2.433e-7
-0.144, 2.482e-7
-0.140, 2.530e-7
-0.136, 2.579e-7
-0.132, 2.624e-7
-0.128, 2.670e-7
-0.124, 2.717e-7
-0.120, 2.761e-7
-0.116, 2.805e-7
-0.112, 2.848e-7
-0.108, 2.888e-7
-0.104, 2.932e-7
-0.100, 2.967e-7
-0.096, 3.003e-7
-0.092, 3.041e-7
-0.088, 3.080e-7
-0.084, 3.112e-7
-0.080, 3.149e-7
-0.076, 3.188e-7
-0.072, 3.225e-7
-0.068, 3.262e-7
-0.064, 3.299e-7
-0.060, 3.335e-7
-0.056, 3.379e-7
-0.052, 3.420e-7
-0.048, 3.455e-7
-0.044, 3.492e-7
-0.040, 3.533e-7
-0.036, 3.570e-7
-0.032, 3.603e-7
-0.028, 3.642e-7
-0.024, 3.684e-7
-0.020, 3.718e-7
-0.016, 3.754e-7
-0.012, 3.793e-7
-0.008, 3.830e-7
-0.004, 3.867e-7
-0.000, 3.904e-7
0.004, 3.944e-7
0.008, 3.981e-7
0.012, 4.017e-7
0.016, 4.051e-7
0.020, 4.083e-7
0.024, 4.120e-7
0.028, 4.157e-7
0.032, 4.194e-7
0.036, 4.228e-7
0.040, 4.266e-7
0.044, 4.298e-7
0.048, 4.330e-7
0.052, 4.363e-7
0.056, 4.401e-7
0.060, 4.435e-7
0.064, 4.471e-7
0.068, 4.505e-7
0.072, 4.542e-7
0.076, 4.570e-7
0.080, 4.602e-7
0.084, 4.638e-7
0.088, 4.675e-7
0.092, 4.706e-7
0.096, 4.739e-7
0.100, 4.770e-7
0.104, 4.806e-7
0.108, 4.835e-7
0.112, 4.868e-7
0.116, 4.901e-7
0.120, 4.937e-7
0.124, 4.969e-7
0.128, 5.002e-7
0.132, 5.034e-7
0.136, 5.067e-7
0.140, 5.095e-7
0.144, 5.128e-7
0.148, 5.161e-7
0.152, 5.194e-7
0.156, 5.223e-7
0.160, 5.254e-7
0.164, 5.284e-7
0.168, 5.319e-7
0.172, 5.348e-7
0.176, 5.380e-7
0.180, 5.411e-7
0.184, 5.443e-7
0.188, 5.474e-7
0.192, 5.507e-7
0.196, 5.536e-7
0.199, 5.550e-7