File: data/raw_data/electrochemistry/20170904_Gr-NH2_prod_for_Radisurf/30 min cv blank.txt
Sept. 4, 2017   11:10:01
Cyclic Voltammetry
File: 30 min cv blank
Data Source:  Experiment
Instrument Model:  CHI601D
Header:
Note:

Init E (V) = 0.2
High E (V) = 0.2
Low E (V) = -1
Final E (V) = 0.2
Init P/N = N
Scan Rate (V/s) = 0.1
Segment = 2
Sample Interval (V) = 0.001
Quiet Time (sec) = 2
Sensitivity (A/V) = 1e-5

Potential/V, Current/A

Segment 1:
0.200, -1.406e-8
0.196, -1.792e-8
0.192, -1.967e-8
0.188, -2.107e-8
0.184, -2.254e-8
0.180, -2.397e-8
0.176, -2.534e-8
0.172, -2.675e-8
0.168, -2.842e-8
0.164, -2.982e-8
0.160, -3.114e-8
0.156, -3.225e-8
0.152, -3.356e-8
0.148, -3.475e-8
0.144, -3.600e-8
0.140, -3.739e-8
0.136, -3.892e-8
0.132, -4.046e-8
0.128, -4.203e-8
0.124, -4.362e-8
0.120, -4.520e-8
0.116, -4.668e-8
0.112, -4.827e-8
0.108, -4.986e-8
0.104, -5.163e-8
0.100, -5.336e-8
0.096, -5.518e-8
0.092, -5.688e-8
0.088, -5.858e-8
0.084, -6.027e-8
0.080, -6.211e-8
0.076, -6.384e-8
0.072, -6.590e-8
0.068, -6.774e-8
0.064, -6.961e-8
0.060, -7.156e-8
0.056, -7.368e-8
0.052, -7.604e-8
0.048, -7.833e-8
0.044, -8.061e-8
0.040, -8.261e-8
0.036, -8.458e-8
0.032, -8.681e-8
0.028, -8.923e-8
0.024, -9.189e-8
0.020, -9.438e-8
0.016, -9.702e-8
0.012, -9.949e-8
0.008, -1.024e-7
0.004, -1.051e-7
-0.000, -1.076e-7
-0.004, -1.103e-7
-0.008, -1.132e-7
-0.012, -1.160e-7
-0.016, -1.190e-7
-0.020, -1.220e-7
-0.024, -1.255e-7
-0.028, -1.287e-7
-0.032, -1.315e-7
-0.036, -1.343e-7
-0.040, -1.377e-7
-0.044, -1.411e-7
-0.048, -1.444e-7
-0.052, -1.480e-7
-0.056, -1.519e-7
-0.060, -1.553e-7
-0.064, -1.586e-7
-0.068, -1.623e-7
-0.072, -1.661e-7
-0.076, -1.699e-7
-0.080, -1.740e-7
-0.084, -1.783e-7
-0.088, -1.820e-7
-0.092, -1.860e-7
-0.096, -1.901e-7
-0.100, -1.942e-7
-0.104, -1.988e-7
-0.108, -2.036e-7
-0.112, -2.078e-7
-0.116, -2.124e-7
-0.120, -2.170e-7
-0.124, -2.218e-7
-0.128, -2.269e-7
-0.132, -2.313e-7
-0.136, -2.363e-7
-0.140, -2.412e-7
-0.144, -2.460e-7
-0.148, -2.519e-7
-0.152, -2.572e-7
-0.156, -2.627e-7
-0.160, -2.679e-7
-0.164, -2.738e-7
-0.168, -2.794e-7
-0.172, -2.851e-7
-0.176, -2.906e-7
-0.180, -2.965e-7
-0.184, -3.029e-7
-0.188, -3.092e-7
-0.192, -3.153e-7
-0.196, -3.218e-7
-0.200, -3.284e-7
-0.204, -3.345e-7
-0.208, -3.407e-7
-0.212, -3.479e-7
-0.216, -3.548e-7
-0.220, -3.617e-7
-0.224, -3.685e-7
-0.228, -3.759e-7
-0.232, -3.828e-7
-0.236, -3.900e-7
-0.240, -3.976e-7
-0.244, -4.053e-7
-0.248, -4.130e-7
-0.252, -4.211e-7
-0.256, -4.286e-7
-0.260, -4.367e-7
-0.264, -4.449e-7
-0.268, -4.530e-7
-0.272, -4.616e-7
-0.276, -4.704e-7
-0.280, -4.785e-7
-0.284, -4.868e-7
-0.288, -4.958e-7
-0.292, -5.043e-7
-0.296, -5.138e-7
-0.300, -5.232e-7
-0.304, -5.321e-7
-0.308, -5.413e-7
-0.312, -5.506e-7
-0.316, -5.603e-7
-0.320, -5.707e-7
-0.324, -5.800e-7
-0.328, -5.900e-7
-0.332, -6.002e-7
-0.336, -6.103e-7
-0.340, -6.214e-7
-0.344, -6.316e-7
-0.348, -6.424e-7
-0.352, -6.527e-7
-0.356, -6.636e-7
-0.360, -6.749e-7
-0.364, -6.859e-7
-0.368, -6.973e-7
-0.372, -7.087e-7
-0.376, -7.207e-7
-0.380, -7.323e-7
-0.384, -7.438e-7
-0.388, -7.557e-7
-0.392, -7.682e-7
-0.396, -7.802e-7
-0.400, -7.929e-7
-0.404, -8.050e-7
-0.408, -8.177e-7
-0.412, -8.302e-7
-0.416, -8.435e-7
-0.420, -8.565e-7
-0.424, -8.699e-7
-0.428, -8.832e-7
-0.432, -8.968e-7
-0.436, -9.106e-7
-0.440, -9.239e-7
-0.444, -9.382e-7
-0.448, -9.524e-7
-0.452, -9.665e-7
-0.456, -9.806e-7
-0.460, -9.953e-7
-0.464, -1.010e-6
-0.468, -1.025e-6
-0.472, -1.040e-6
-0.476, -1.055e-6
-0.480, -1.070e-6
-0.484, -1.085e-6
-0.488, -1.101e-6
-0.492, -1.116e-6
-0.496, -1.132e-6
-0.500, -1.147e-6
-0.504, -1.164e-6
-0.508, -1.180e-6
-0.512, -1.196e-6
-0.516, -1.212e-6
-0.520, -1.229e-6
-0.524, -1.246e-6
-0.528, -1.262e-6
-0.532, -1.279e-6
-0.536, -1.296e-6
-0.540, -1.313e-6
-0.544, -1.331e-6
-0.548, -1.348e-6
-0.552, -1.366e-6
-0.556, -1.384e-6
-0.560, -1.402e-6
-0.564, -1.419e-6
-0.568, -1.437e-6
-0.572, -1.456e-6
-0.576, -1.474e-6
-0.580, -1.492e-6
-0.584, -1.511e-6
-0.588, -1.529e-6
-0.592, -1.548e-6
-0.596, -1.567e-6
-0.600, -1.586e-6
-0.604, -1.605e-6
-0.608, -1.625e-6
-0.612, -1.644e-6
-0.616, -1.663e-6
-0.620, -1.683e-6
-0.624, -1.703e-6
-0.628, -1.723e-6
-0.632, -1.743e-6
-0.636, -1.763e-6
-0.640, -1.783e-6
-0.644, -1.803e-6
-0.648, -1.823e-6
-0.652, -1.844e-6
-0.656, -1.864e-6
-0.660, -1.885e-6
-0.664, -1.906e-6
-0.668, -1.927e-6
-0.672, -1.948e-6
-0.676, -1.969e-6
-0.680, -1.990e-6
-0.684, -2.011e-6
-0.688, -2.033e-6
-0.692, -2.054e-6
-0.696, -2.075e-6
-0.700, -2.097e-6
-0.704, -2.118e-6
-0.708, -2.140e-6
-0.712, -2.161e-6
-0.716, -2.183e-6
-0.720, -2.204e-6
-0.724, -2.226e-6
-0.728, -2.249e-6
-0.732, -2.271e-6
-0.736, -2.293e-6
-0.740, -2.315e-6
-0.744, -2.337e-6
-0.748, -2.359e-6
-0.752, -2.381e-6
-0.756, -2.403e-6
-0.760, -2.426e-6
-0.764, -2.448e-6
-0.768, -2.470e-6
-0.772, -2.493e-6
-0.776, -2.516e-6
-0.780, -2.538e-6
-0.784, -2.560e-6
-0.788, -2.583e-6
-0.792, -2.605e-6
-0.796, -2.628e-6
-0.800, -2.650e-6
-0.804, -2.672e-6
-0.808, -2.695e-6
-0.812, -2.717e-6
-0.816, -2.740e-6
-0.820, -2.763e-6
-0.824, -2.786e-6
-0.828, -2.808e-6
-0.832, -2.831e-6
-0.836, -2.853e-6
-0.840, -2.875e-6
-0.844, -2.897e-6
-0.848, -2.920e-6
-0.852, -2.942e-6
-0.856, -2.964e-6
-0.860, -2.986e-6
-0.864, -3.008e-6
-0.868, -3.030e-6
-0.872, -3.053e-6
-0.876, -3.075e-6
-0.880, -3.097e-6
-0.884, -3.119e-6
-0.888, -3.141e-6
-0.892, -3.163e-6
-0.896, -3.185e-6
-0.900, -3.207e-6
-0.904, -3.229e-6
-0.908, -3.250e-6
-0.912, -3.272e-6
-0.916, -3.293e-6
-0.920, -3.315e-6
-0.924, -3.335e-6
-0.928, -3.357e-6
-0.932, -3.378e-6
-0.936, -3.400e-6
-0.940, -3.422e-6
-0.944, -3.443e-6
-0.948, -3.464e-6
-0.952, -3.485e-6
-0.956, -3.507e-6
-0.960, -3.528e-6
-0.964, -3.549e-6
-0.968, -3.570e-6
-0.972, -3.591e-6
-0.976, -3.612e-6
-0.980, -3.632e-6
-0.984, -3.653e-6
-0.988, -3.674e-6
-0.992, -3.695e-6
-0.996, -3.715e-6
-0.999, -3.730e-6

Segment 2:
-1.000, -3.730e-6
-0.996, -3.625e-6
-0.992, -3.527e-6
-0.988, -3.438e-6
-0.984, -3.356e-6
-0.980, -3.279e-6
-0.976, -3.207e-6
-0.972, -3.138e-6
-0.968, -3.073e-6
-0.964, -3.010e-6
-0.960, -2.950e-6
-0.956, -2.891e-6
-0.952, -2.835e-6
-0.948, -2.781e-6
-0.944, -2.729e-6
-0.940, -2.678e-6
-0.936, -2.629e-6
-0.932, -2.581e-6
-0.928, -2.534e-6
-0.924, -2.489e-6
-0.920, -2.445e-6
-0.916, -2.402e-6
-0.912, -2.361e-6
-0.908, -2.319e-6
-0.904, -2.279e-6
-0.900, -2.241e-6
-0.896, -2.203e-6
-0.892, -2.165e-6
-0.888, -2.128e-6
-0.884, -2.093e-6
-0.880, -2.057e-6
-0.876, -2.023e-6
-0.872, -1.990e-6
-0.868, -1.956e-6
-0.864, -1.924e-6
-0.860, -1.891e-6
-0.856, -1.860e-6
-0.852, -1.829e-6
-0.848, -1.799e-6
-0.844, -1.770e-6
-0.840, -1.741e-6
-0.836, -1.712e-6
-0.832, -1.684e-6
-0.828, -1.657e-6
-0.824, -1.629e-6
-0.820, -1.603e-6
-0.816, -1.576e-6
-0.812, -1.551e-6
-0.808, -1.525e-6
-0.804, -1.500e-6
-0.800, -1.476e-6
-0.796, -1.452e-6
-0.792, -1.428e-6
-0.788, -1.404e-6
-0.784, -1.381e-6
-0.780, -1.358e-6
-0.776, -1.336e-6
-0.772, -1.314e-6
-0.768, -1.292e-6
-0.764, -1.271e-6
-0.760, -1.249e-6
-0.756, -1.228e-6
-0.752, -1.208e-6
-0.748, -1.188e-6
-0.744, -1.167e-6
-0.740, -1.147e-6
-0.736, -1.128e-6
-0.732, -1.110e-6
-0.728, -1.090e-6
-0.724, -1.072e-6
-0.720, -1.054e-6
-0.716, -1.035e-6
-0.712, -1.018e-6
-0.708, -1.000e-6
-0.704, -9.823e-7
-0.700, -9.657e-7
-0.696, -9.488e-7
-0.692, -9.317e-7
-0.688, -9.160e-7
-0.684, -8.997e-7
-0.680, -8.835e-7
-0.676, -8.679e-7
-0.672, -8.520e-7
-0.668, -8.371e-7
-0.664, -8.215e-7
-0.660, -8.068e-7
-0.656, -7.924e-7
-0.652, -7.775e-7
-0.648, -7.635e-7
-0.644, -7.489e-7
-0.640, -7.354e-7
-0.636, -7.218e-7
-0.632, -7.079e-7
-0.628, -6.947e-7
-0.624, -6.814e-7
-0.620, -6.686e-7
-0.616, -6.552e-7
-0.612, -6.428e-7
-0.608, -6.302e-7
-0.604, -6.184e-7
-0.600, -6.055e-7
-0.596, -5.937e-7
-0.592, -5.817e-7
-0.588, -5.705e-7
-0.584, -5.582e-7
-0.580, -5.470e-7
-0.576, -5.360e-7
-0.572, -5.250e-7
-0.568, -5.140e-7
-0.564, -5.028e-7
-0.560, -4.924e-7
-0.556, -4.821e-7
-0.552, -4.722e-7
-0.548, -4.618e-7
-0.544, -4.515e-7
-0.540, -4.415e-7
-0.536, -4.318e-7
-0.532, -4.224e-7
-0.528, -4.127e-7
-0.524, -4.034e-7
-0.520, -3.938e-7
-0.516, -3.850e-7
-0.512, -3.765e-7
-0.508, -3.673e-7
-0.504, -3.589e-7
-0.500, -3.504e-7
-0.496, -3.414e-7
-0.492, -3.336e-7
-0.488, -3.257e-7
-0.484, -3.174e-7
-0.480, -3.095e-7
-0.476, -3.015e-7
-0.472, -2.934e-7
-0.468, -2.860e-7
-0.464, -2.786e-7
-0.460, -2.711e-7
-0.456, -2.639e-7
-0.452, -2.567e-7
-0.448, -2.494e-7
-0.444, -2.423e-7
-0.440, -2.356e-7
-0.436, -2.292e-7
-0.432, -2.225e-7
-0.428, -2.159e-7
-0.424, -2.095e-7
-0.420, -2.034e-7
-0.416, -1.966e-7
-0.412, -1.905e-7
-0.408, -1.845e-7
-0.404, -1.790e-7
-0.400, -1.727e-7
-0.396, -1.669e-7
-0.392, -1.613e-7
-0.388, -1.558e-7
-0.384, -1.503e-7
-0.380, -1.446e-7
-0.376, -1.392e-7
-0.372, -1.340e-7
-0.368, -1.293e-7
-0.364, -1.239e-7
-0.360, -1.187e-7
-0.356, -1.137e-7
-0.352, -1.089e-7
-0.348, -1.043e-7
-0.344, -9.938e-8
-0.340, -9.457e-8
-0.336, -8.979e-8
-0.332, -8.533e-8
-0.328, -8.129e-8
-0.324, -7.696e-8
-0.320, -7.240e-8
-0.316, -6.841e-8
-0.312, -6.415e-8
-0.308, -6.020e-8
-0.304, -5.636e-8
-0.300, -5.226e-8
-0.296, -4.808e-8
-0.292, -4.432e-8
-0.288, -4.033e-8
-0.284, -3.647e-8
-0.280, -3.300e-8
-0.276, -2.959e-8
-0.272, -2.578e-8
-0.268, -2.222e-8
-0.264, -1.886e-8
-0.260, -1.539e-8
-0.256, -1.184e-8
-0.252, -8.577e-9
-0.248, -5.399e-9
-0.244, -1.977e-9
-0.240, 1.259e-9
-0.236, 4.221e-9
-0.232, 7.300e-9
-0.228, 1.058e-8
-0.224, 1.383e-8
-0.220, 1.640e-8
-0.216, 1.917e-8
-0.212, 2.227e-8
-0.208, 2.523e-8
-0.204, 2.810e-8
-0.200, 3.073e-8
-0.196, 3.349e-8
-0.192, 3.626e-8
-0.188, 3.881e-8
-0.184, 4.130e-8
-0.180, 4.391e-8
-0.176, 4.657e-8
-0.172, 4.915e-8
-0.168, 5.157e-8
-0.164, 5.393e-8
-0.160, 5.634e-8
-0.156, 5.873e-8
-0.152, 6.120e-8
-0.148, 6.318e-8
-0.144, 6.503e-8
-0.140, 6.722e-8
-0.136, 7.012e-8
-0.132, 7.253e-8
-0.128, 7.490e-8
-0.124, 7.699e-8
-0.120, 7.925e-8
-0.116, 8.128e-8
-0.112, 8.334e-8
-0.108, 8.537e-8
-0.104, 8.744e-8
-0.100, 8.929e-8
-0.096, 9.118e-8
-0.092, 9.309e-8
-0.088, 9.527e-8
-0.084, 9.738e-8
-0.080, 9.923e-8
-0.076, 1.010e-7
-0.072, 1.029e-7
-0.068, 1.047e-7
-0.064, 1.065e-7
-0.060, 1.085e-7
-0.056, 1.103e-7
-0.052, 1.120e-7
-0.048, 1.136e-7
-0.044, 1.151e-7
-0.040, 1.168e-7
-0.036, 1.187e-7
-0.032, 1.207e-7
-0.028, 1.225e-7
-0.024, 1.245e-7
-0.020, 1.263e-7
-0.016, 1.280e-7
-0.012, 1.297e-7
-0.008, 1.314e-7
-0.004, 1.331e-7
-0.000, 1.347e-7
0.004, 1.363e-7
0.008, 1.379e-7
0.012, 1.393e-7
0.016, 1.409e-7
0.020, 1.426e-7
0.024, 1.443e-7
0.028, 1.460e-7
0.032, 1.476e-7
0.036, 1.492e-7
0.040, 1.508e-7
0.044, 1.523e-7
0.048, 1.539e-7
0.052, 1.555e-7
0.056, 1.570e-7
0.060, 1.586e-7
0.064, 1.599e-7
0.068, 1.613e-7
0.072, 1.627e-7
0.076, 1.640e-7
0.080, 1.654e-7
0.084, 1.669e-7
0.088, 1.685e-7
0.092, 1.702e-7
0.096, 1.716e-7
0.100, 1.732e-7
0.104, 1.748e-7
0.108, 1.763e-7
0.112, 1.777e-7
0.116, 1.793e-7
0.120, 1.808e-7
0.124, 1.822e-7
0.128, 1.834e-7
0.132, 1.849e-7
0.136, 1.863e-7
0.140, 1.876e-7
0.144, 1.888e-7
0.148, 1.900e-7
0.152, 1.916e-7
0.156, 1.930e-7
0.160, 1.943e-7
0.164, 1.957e-7
0.168, 1.970e-7
0.172, 1.983e-7
0.176, 1.995e-7
0.180, 2.008e-7
0.184, 2.020e-7
0.188, 2.033e-7
0.192, 2.046e-7
0.196, 2.059e-7
0.199, 2.078e-7