File: data/raw_data/electrochemistry/20170904_Gr-NH2_prod_for_Radisurf/45 min cv 1.txt
Sept. 4, 2017   11:29:20
Cyclic Voltammetry
File: 45 min cv 1
Data Source:  Experiment
Instrument Model:  CHI601D
Header:
Note:

Init E (V) = 0.2
High E (V) = 0.2
Low E (V) = -1
Final E (V) = 0.2
Init P/N = N
Scan Rate (V/s) = 0.1
Segment = 2
Sample Interval (V) = 0.001
Quiet Time (sec) = 2
Sensitivity (A/V) = 1e-5

Potential/V, Current/A

Segment 1:
0.200, -4.702e-8
0.196, -7.581e-8
0.192, -7.935e-8
0.188, -8.092e-8
0.184, -8.297e-8
0.180, -8.387e-8
0.176, -8.499e-8
0.172, -8.642e-8
0.168, -8.839e-8
0.164, -8.961e-8
0.160, -9.128e-8
0.156, -9.284e-8
0.152, -9.549e-8
0.148, -9.674e-8
0.144, -9.863e-8
0.140, -1.011e-7
0.136, -1.038e-7
0.132, -1.059e-7
0.128, -1.082e-7
0.124, -1.105e-7
0.120, -1.143e-7
0.116, -1.168e-7
0.112, -1.203e-7
0.108, -1.240e-7
0.104, -1.285e-7
0.100, -1.316e-7
0.096, -1.352e-7
0.092, -1.393e-7
0.088, -1.444e-7
0.084, -1.490e-7
0.080, -1.538e-7
0.076, -1.585e-7
0.072, -1.644e-7
0.068, -1.694e-7
0.064, -1.758e-7
0.060, -1.810e-7
0.056, -1.878e-7
0.052, -1.935e-7
0.048, -2.001e-7
0.044, -2.070e-7
0.040, -2.145e-7
0.036, -2.210e-7
0.032, -2.285e-7
0.028, -2.353e-7
0.024, -2.431e-7
0.020, -2.508e-7
0.016, -2.585e-7
0.012, -2.660e-7
0.008, -2.749e-7
0.004, -2.823e-7
-0.000, -2.895e-7
-0.004, -2.980e-7
-0.008, -3.072e-7
-0.012, -3.151e-7
-0.016, -3.235e-7
-0.020, -3.319e-7
-0.024, -3.404e-7
-0.028, -3.493e-7
-0.032, -3.578e-7
-0.036, -3.662e-7
-0.040, -3.763e-7
-0.044, -3.848e-7
-0.048, -3.934e-7
-0.052, -4.030e-7
-0.056, -4.132e-7
-0.060, -4.224e-7
-0.064, -4.322e-7
-0.068, -4.413e-7
-0.072, -4.521e-7
-0.076, -4.616e-7
-0.080, -4.717e-7
-0.084, -4.814e-7
-0.088, -4.922e-7
-0.092, -5.022e-7
-0.096, -5.132e-7
-0.100, -5.236e-7
-0.104, -5.349e-7
-0.108, -5.455e-7
-0.112, -5.566e-7
-0.116, -5.686e-7
-0.120, -5.803e-7
-0.124, -5.922e-7
-0.128, -6.038e-7
-0.132, -6.162e-7
-0.136, -6.292e-7
-0.140, -6.414e-7
-0.144, -6.542e-7
-0.148, -6.676e-7
-0.152, -6.814e-7
-0.156, -6.951e-7
-0.160, -7.090e-7
-0.164, -7.233e-7
-0.168, -7.386e-7
-0.172, -7.532e-7
-0.176, -7.684e-7
-0.180, -7.840e-7
-0.184, -8.010e-7
-0.188, -8.174e-7
-0.192, -8.342e-7
-0.196, -8.510e-7
-0.200, -8.698e-7
-0.204, -8.883e-7
-0.208, -9.070e-7
-0.212, -9.262e-7
-0.216, -9.473e-7
-0.220, -9.673e-7
-0.224, -9.879e-7
-0.228, -1.010e-6
-0.232, -1.033e-6
-0.236, -1.055e-6
-0.240, -1.078e-6
-0.244, -1.102e-6
-0.248, -1.128e-6
-0.252, -1.153e-6
-0.256, -1.179e-6
-0.260, -1.206e-6
-0.264, -1.236e-6
-0.268, -1.265e-6
-0.272, -1.295e-6
-0.276, -1.327e-6
-0.280, -1.361e-6
-0.284, -1.396e-6
-0.288, -1.432e-6
-0.292, -1.470e-6
-0.296, -1.511e-6
-0.300, -1.554e-6
-0.304, -1.598e-6
-0.308, -1.644e-6
-0.312, -1.695e-6
-0.316, -1.747e-6
-0.320, -1.803e-6
-0.324, -1.860e-6
-0.328, -1.921e-6
-0.332, -1.984e-6
-0.336, -2.048e-6
-0.340, -2.112e-6
-0.344, -2.179e-6
-0.348, -2.245e-6
-0.352, -2.310e-6
-0.356, -2.372e-6
-0.360, -2.432e-6
-0.364, -2.485e-6
-0.368, -2.532e-6
-0.372, -2.571e-6
-0.376, -2.603e-6
-0.380, -2.627e-6
-0.384, -2.645e-6
-0.388, -2.656e-6
-0.392, -2.667e-6
-0.396, -2.675e-6
-0.400, -2.682e-6
-0.404, -2.690e-6
-0.408, -2.701e-6
-0.412, -2.712e-6
-0.416, -2.727e-6
-0.420, -2.741e-6
-0.424, -2.762e-6
-0.428, -2.780e-6
-0.432, -2.799e-6
-0.436, -2.820e-6
-0.440, -2.840e-6
-0.444, -2.862e-6
-0.448, -2.882e-6
-0.452, -2.902e-6
-0.456, -2.922e-6
-0.460, -2.941e-6
-0.464, -2.958e-6
-0.468, -2.974e-6
-0.472, -2.991e-6
-0.476, -3.004e-6
-0.480, -3.017e-6
-0.484, -3.026e-6
-0.488, -3.036e-6
-0.492, -3.042e-6
-0.496, -3.048e-6
-0.500, -3.051e-6
-0.504, -3.054e-6
-0.508, -3.054e-6
-0.512, -3.051e-6
-0.516, -3.047e-6
-0.520, -3.043e-6
-0.524, -3.036e-6
-0.528, -3.029e-6
-0.532, -3.019e-6
-0.536, -3.008e-6
-0.540, -2.997e-6
-0.544, -2.982e-6
-0.548, -2.967e-6
-0.552, -2.954e-6
-0.556, -2.936e-6
-0.560, -2.919e-6
-0.564, -2.901e-6
-0.568, -2.883e-6
-0.572, -2.863e-6
-0.576, -2.842e-6
-0.580, -2.821e-6
-0.584, -2.801e-6
-0.588, -2.780e-6
-0.592, -2.757e-6
-0.596, -2.734e-6
-0.600, -2.713e-6
-0.604, -2.690e-6
-0.608, -2.668e-6
-0.612, -2.644e-6
-0.616, -2.623e-6
-0.620, -2.600e-6
-0.624, -2.576e-6
-0.628, -2.553e-6
-0.632, -2.531e-6
-0.636, -2.509e-6
-0.640, -2.486e-6
-0.644, -2.464e-6
-0.648, -2.444e-6
-0.652, -2.421e-6
-0.656, -2.400e-6
-0.660, -2.379e-6
-0.664, -2.361e-6
-0.668, -2.340e-6
-0.672, -2.321e-6
-0.676, -2.302e-6
-0.680, -2.284e-6
-0.684, -2.266e-6
-0.688, -2.248e-6
-0.692, -2.230e-6
-0.696, -2.214e-6
-0.700, -2.198e-6
-0.704, -2.181e-6
-0.708, -2.165e-6
-0.712, -2.151e-6
-0.716, -2.135e-6
-0.720, -2.119e-6
-0.724, -2.105e-6
-0.728, -2.092e-6
-0.732, -2.078e-6
-0.736, -2.064e-6
-0.740, -2.050e-6
-0.744, -2.040e-6
-0.748, -2.027e-6
-0.752, -2.015e-6
-0.756, -2.003e-6
-0.760, -1.994e-6
-0.764, -1.983e-6
-0.768, -1.973e-6
-0.772, -1.962e-6
-0.776, -1.956e-6
-0.780, -1.947e-6
-0.784, -1.938e-6
-0.788, -1.930e-6
-0.792, -1.924e-6
-0.796, -1.915e-6
-0.800, -1.908e-6
-0.804, -1.901e-6
-0.808, -1.897e-6
-0.812, -1.891e-6
-0.816, -1.884e-6
-0.820, -1.881e-6
-0.824, -1.877e-6
-0.828, -1.873e-6
-0.832, -1.870e-6
-0.836, -1.866e-6
-0.840, -1.866e-6
-0.844, -1.863e-6
-0.848, -1.862e-6
-0.852, -1.862e-6
-0.856, -1.863e-6
-0.860, -1.864e-6
-0.864, -1.867e-6
-0.868, -1.869e-6
-0.872, -1.874e-6
-0.876, -1.878e-6
-0.880, -1.884e-6
-0.884, -1.891e-6
-0.888, -1.899e-6
-0.892, -1.908e-6
-0.896, -1.917e-6
-0.900, -1.928e-6
-0.904, -1.942e-6
-0.908, -1.956e-6
-0.912, -1.970e-6
-0.916, -1.987e-6
-0.920, -2.006e-6
-0.924, -2.024e-6
-0.928, -2.044e-6
-0.932, -2.065e-6
-0.936, -2.091e-6
-0.940, -2.117e-6
-0.944, -2.146e-6
-0.948, -2.176e-6
-0.952, -2.210e-6
-0.956, -2.245e-6
-0.960, -2.284e-6
-0.964, -2.325e-6
-0.968, -2.373e-6
-0.972, -2.422e-6
-0.976, -2.472e-6
-0.980, -2.528e-6
-0.984, -2.591e-6
-0.988, -2.655e-6
-0.992, -2.729e-6
-0.996, -2.819e-6
-0.999, -2.870e-6

Segment 2:
-1.000, -2.842e-6
-0.996, -2.473e-6
-0.992, -2.219e-6
-0.988, -2.020e-6
-0.984, -1.853e-6
-0.980, -1.712e-6
-0.976, -1.590e-6
-0.972, -1.482e-6
-0.968, -1.387e-6
-0.964, -1.303e-6
-0.960, -1.227e-6
-0.956, -1.157e-6
-0.952, -1.090e-6
-0.948, -1.031e-6
-0.944, -9.730e-7
-0.940, -9.213e-7
-0.936, -8.725e-7
-0.932, -8.286e-7
-0.928, -7.885e-7
-0.924, -7.496e-7
-0.920, -7.131e-7
-0.916, -6.801e-7
-0.912, -6.492e-7
-0.908, -6.196e-7
-0.904, -5.907e-7
-0.900, -5.648e-7
-0.896, -5.404e-7
-0.892, -5.176e-7
-0.888, -4.950e-7
-0.884, -4.752e-7
-0.880, -4.555e-7
-0.876, -4.372e-7
-0.872, -4.195e-7
-0.868, -4.031e-7
-0.864, -3.877e-7
-0.860, -3.739e-7
-0.856, -3.591e-7
-0.852, -3.460e-7
-0.848, -3.343e-7
-0.844, -3.232e-7
-0.840, -3.109e-7
-0.836, -3.003e-7
-0.832, -2.900e-7
-0.828, -2.806e-7
-0.824, -2.708e-7
-0.820, -2.626e-7
-0.816, -2.543e-7
-0.812, -2.458e-7
-0.808, -2.379e-7
-0.804, -2.313e-7
-0.800, -2.250e-7
-0.796, -2.184e-7
-0.792, -2.117e-7
-0.788, -2.061e-7
-0.784, -2.003e-7
-0.780, -1.952e-7
-0.776, -1.903e-7
-0.772, -1.854e-7
-0.768, -1.809e-7
-0.764, -1.765e-7
-0.760, -1.714e-7
-0.756, -1.671e-7
-0.752, -1.634e-7
-0.748, -1.594e-7
-0.744, -1.552e-7
-0.740, -1.524e-7
-0.736, -1.487e-7
-0.732, -1.456e-7
-0.728, -1.413e-7
-0.724, -1.384e-7
-0.720, -1.359e-7
-0.716, -1.332e-7
-0.712, -1.298e-7
-0.708, -1.271e-7
-0.704, -1.246e-7
-0.700, -1.220e-7
-0.696, -1.190e-7
-0.692, -1.170e-7
-0.688, -1.145e-7
-0.684, -1.122e-7
-0.680, -1.093e-7
-0.676, -1.076e-7
-0.672, -1.056e-7
-0.668, -1.038e-7
-0.664, -1.012e-7
-0.660, -9.937e-8
-0.656, -9.735e-8
-0.652, -9.552e-8
-0.648, -9.284e-8
-0.644, -9.129e-8
-0.640, -8.951e-8
-0.636, -8.814e-8
-0.632, -8.538e-8
-0.628, -8.387e-8
-0.624, -8.231e-8
-0.620, -8.098e-8
-0.616, -7.885e-8
-0.612, -7.699e-8
-0.608, -7.543e-8
-0.604, -7.387e-8
-0.600, -7.140e-8
-0.596, -7.055e-8
-0.592, -6.898e-8
-0.588, -6.760e-8
-0.584, -6.507e-8
-0.580, -6.404e-8
-0.576, -6.231e-8
-0.572, -6.117e-8
-0.568, -5.870e-8
-0.564, -5.740e-8
-0.560, -5.610e-8
-0.556, -5.438e-8
-0.552, -5.201e-8
-0.548, -5.071e-8
-0.544, -4.871e-8
-0.540, -4.735e-8
-0.536, -4.509e-8
-0.532, -4.387e-8
-0.528, -4.238e-8
-0.524, -4.027e-8
-0.520, -3.781e-8
-0.516, -3.659e-8
-0.512, -3.568e-8
-0.508, -3.334e-8
-0.504, -3.101e-8
-0.500, -2.924e-8
-0.496, -2.758e-8
-0.492, -2.591e-8
-0.488, -2.323e-8
-0.484, -2.139e-8
-0.480, -1.960e-8
-0.476, -1.818e-8
-0.472, -1.517e-8
-0.468, -1.332e-8
-0.464, -1.150e-8
-0.460, -9.567e-9
-0.456, -6.586e-9
-0.452, -4.693e-9
-0.448, -2.673e-9
-0.444, -8.591e-10
-0.440, 1.887e-9
-0.436, 3.603e-9
-0.432, 5.574e-9
-0.428, 7.888e-9
-0.424, 1.059e-8
-0.420, 1.286e-8
-0.416, 1.488e-8
-0.412, 1.681e-8
-0.408, 1.984e-8
-0.404, 2.174e-8
-0.400, 2.389e-8
-0.396, 2.633e-8
-0.392, 2.918e-8
-0.388, 3.131e-8
-0.384, 3.346e-8
-0.380, 3.571e-8
-0.376, 3.856e-8
-0.372, 4.055e-8
-0.368, 4.243e-8
-0.364, 4.495e-8
-0.360, 4.788e-8
-0.356, 4.981e-8
-0.352, 5.184e-8
-0.348, 5.373e-8
-0.344, 5.636e-8
-0.340, 5.816e-8
-0.336, 6.013e-8
-0.332, 6.165e-8
-0.328, 6.382e-8
-0.324, 6.516e-8
-0.320, 6.733e-8
-0.316, 6.887e-8
-0.312, 7.148e-8
-0.308, 7.302e-8
-0.304, 7.459e-8
-0.300, 7.614e-8
-0.296, 7.828e-8
-0.292, 7.969e-8
-0.288, 8.120e-8
-0.284, 8.225e-8
-0.280, 8.465e-8
-0.276, 8.569e-8
-0.272, 8.687e-8
-0.268, 8.816e-8
-0.264, 9.013e-8
-0.260, 9.136e-8
-0.256, 9.271e-8
-0.252, 9.401e-8
-0.248, 9.624e-8
-0.244, 9.740e-8
-0.240, 9.850e-8
-0.236, 9.982e-8
-0.232, 1.019e-7
-0.228, 1.030e-7
-0.224, 1.042e-7
-0.220, 1.053e-7
-0.216, 1.077e-7
-0.212, 1.091e-7
-0.208, 1.102e-7
-0.204, 1.118e-7
-0.200, 1.138e-7
-0.196, 1.150e-7
-0.192, 1.168e-7
-0.188, 1.178e-7
-0.184, 1.209e-7
-0.180, 1.221e-7
-0.176, 1.239e-7
-0.172, 1.261e-7
-0.168, 1.284e-7
-0.164, 1.300e-7
-0.160, 1.321e-7
-0.156, 1.339e-7
-0.152, 1.365e-7
-0.148, 1.382e-7
-0.144, 1.403e-7
-0.140, 1.422e-7
-0.136, 1.451e-7
-0.132, 1.475e-7
-0.128, 1.495e-7
-0.124, 1.516e-7
-0.120, 1.550e-7
-0.116, 1.575e-7
-0.112, 1.595e-7
-0.108, 1.618e-7
-0.104, 1.650e-7
-0.100, 1.670e-7
-0.096, 1.699e-7
-0.092, 1.724e-7
-0.088, 1.760e-7
-0.084, 1.783e-7
-0.080, 1.806e-7
-0.076, 1.827e-7
-0.072, 1.857e-7
-0.068, 1.872e-7
-0.064, 1.890e-7
-0.060, 1.904e-7
-0.056, 1.925e-7
-0.052, 1.930e-7
-0.048, 1.940e-7
-0.044, 1.955e-7
-0.040, 1.980e-7
-0.036, 1.990e-7
-0.032, 2.013e-7
-0.028, 2.029e-7
-0.024, 2.061e-7
-0.020, 2.079e-7
-0.016, 2.104e-7
-0.012, 2.128e-7
-0.008, 2.164e-7
-0.004, 2.188e-7
-0.000, 2.206e-7
0.004, 2.243e-7
0.008, 2.280e-7
0.012, 2.307e-7
0.016, 2.335e-7
0.020, 2.365e-7
0.024, 2.404e-7
0.028, 2.430e-7
0.032, 2.460e-7
0.036, 2.486e-7
0.040, 2.527e-7
0.044, 2.550e-7
0.048, 2.578e-7
0.052, 2.609e-7
0.056, 2.653e-7
0.060, 2.681e-7
0.064, 2.709e-7
0.068, 2.738e-7
0.072, 2.775e-7
0.076, 2.807e-7
0.080, 2.836e-7
0.084, 2.869e-7
0.088, 2.914e-7
0.092, 2.942e-7
0.096, 2.974e-7
0.100, 2.999e-7
0.104, 3.043e-7
0.108, 3.070e-7
0.112, 3.104e-7
0.116, 3.134e-7
0.120, 3.182e-7
0.124, 3.209e-7
0.128, 3.244e-7
0.132, 3.272e-7
0.136, 3.323e-7
0.140, 3.351e-7
0.144, 3.380e-7
0.148, 3.414e-7
0.152, 3.470e-7
0.156, 3.495e-7
0.160, 3.532e-7
0.164, 3.556e-7
0.168, 3.609e-7
0.172, 3.635e-7
0.176, 3.667e-7
0.180, 3.701e-7
0.184, 3.754e-7
0.188, 3.781e-7
0.192, 3.818e-7
0.196, 3.846e-7
0.199, 3.797e-7