File: data/raw_data/electrochemistry/20170904_Gr-NH2_prod_for_Radisurf/initial blank cv.txt
Sept. 4, 2017   10:16:17
Cyclic Voltammetry
File: initial blank cv
Data Source:  Experiment
Instrument Model:  CHI601D
Header:
Note:

Init E (V) = 0
High E (V) = 0
Low E (V) = -1
Init P/N = N
Scan Rate (V/s) = 0.1
Segment = 2
Sample Interval (V) = 0.001
Quiet Time (sec) = 2
Sensitivity (A/V) = 1e-6

Potential/V, Current/A

Segment 1:
0.000, -1.074e-6
-0.004, -1.122e-6
-0.008, -1.146e-6
-0.012, -1.176e-6
-0.016, -1.196e-6
-0.020, -1.225e-6
-0.024, -1.246e-6
-0.028, -1.272e-6
-0.032, -1.294e-6
-0.036, -1.319e-6
-0.040, -1.342e-6
-0.044, -1.365e-6
-0.048, -1.390e-6
-0.052, -1.412e-6
-0.056, -1.439e-6
-0.060, -1.459e-6
-0.064, -1.487e-6
-0.068, -1.505e-6
-0.072, -1.535e-6
-0.076, -1.553e-6
-0.080, -1.582e-6
-0.084, -1.602e-6
-0.088, -1.630e-6
-0.092, -1.651e-6
-0.096, -1.677e-6
-0.100, -1.699e-6
-0.104, -1.724e-6
-0.108, -1.749e-6
-0.112, -1.772e-6
-0.116, -1.799e-6
-0.120, -1.820e-6
-0.124, -1.849e-6
-0.128, -1.869e-6
-0.132, -1.898e-6
-0.136, -1.918e-6
-0.140, -1.949e-6
-0.144, -1.969e-6
-0.148, -1.999e-6
-0.152, -2.020e-6
-0.156, -2.049e-6
-0.160, -2.072e-6
-0.164, -2.099e-6
-0.168, -2.125e-6
-0.172, -2.150e-6
-0.176, -2.178e-6
-0.180, -2.201e-6
-0.184, -2.231e-6
-0.188, -2.253e-6
-0.192, -2.285e-6
-0.196, -2.305e-6
-0.200, -2.338e-6
-0.204, -2.359e-6
-0.208, -2.392e-6
-0.212, -2.414e-6
-0.216, -2.446e-6
-0.220, -2.470e-6
-0.224, -2.500e-6
-0.228, -2.526e-6
-0.232, -2.554e-6
-0.236, -2.584e-6
-0.240, -2.609e-6
-0.244, -2.641e-6
-0.248, -2.665e-6
-0.252, -2.698e-6
-0.256, -2.721e-6
-0.260, -2.756e-6
-0.264, -2.779e-6
-0.268, -2.814e-6
-0.272, -2.837e-6
-0.276, -2.871e-6
-0.280, -2.897e-6
-0.284, -2.930e-6
-0.288, -2.958e-6
-0.292, -2.988e-6
-0.296, -3.019e-6
-0.300, -3.047e-6
-0.304, -3.081e-6
-0.308, -3.106e-6
-0.312, -3.143e-6
-0.316, -3.168e-6
-0.320, -3.205e-6
-0.324, -3.229e-6
-0.328, -3.268e-6
-0.332, -3.293e-6
-0.336, -3.330e-6
-0.340, -3.357e-6
-0.344, -3.393e-6
-0.348, -3.422e-6
-0.352, -3.456e-6
-0.356, -3.487e-6
-0.360, -3.520e-6
-0.364, -3.554e-6
-0.368, -3.583e-6
-0.372, -3.621e-6
-0.376, -3.648e-6
-0.380, -3.688e-6
-0.384, -3.714e-6
-0.388, -3.755e-6
-0.392, -3.781e-6
-0.396, -3.821e-6
-0.400, -3.849e-6
-0.404, -3.888e-6
-0.408, -3.918e-6
-0.412, -3.955e-6
-0.416, -3.987e-6
-0.420, -4.021e-6
-0.424, -4.057e-6
-0.428, -4.089e-6
-0.432, -4.127e-6
-0.436, -4.156e-6
-0.440, -4.196e-6
-0.444, -4.224e-6
-0.448, -4.266e-6
-0.452, -4.293e-6
-0.456, -4.336e-6
-0.460, -4.364e-6
-0.464, -4.404e-6
-0.468, -4.434e-6
-0.472, -4.474e-6
-0.476, -4.507e-6
-0.480, -4.543e-6
-0.484, -4.578e-6
-0.488, -4.612e-6
-0.492, -4.651e-6
-0.496, -4.682e-6
-0.500, -4.723e-6
-0.504, -4.752e-6
-0.508, -4.794e-6
-0.512, -4.821e-6
-0.516, -4.865e-6
-0.520, -4.896e-6
-0.524, -4.938e-6
-0.528, -4.967e-6
-0.532, -5.007e-6
-0.536, -5.039e-6
-0.540, -5.077e-6
-0.544, -5.111e-6
-0.548, -5.147e-6
-0.552, -5.185e-6
-0.556, -5.217e-6
-0.560, -5.258e-6
-0.564, -5.287e-6
-0.568, -5.330e-6
-0.572, -5.358e-6
-0.576, -5.402e-6
-0.580, -5.429e-6
-0.584, -5.474e-6
-0.588, -5.502e-6
-0.592, -5.545e-6
-0.596, -5.576e-6
-0.600, -5.616e-6
-0.604, -5.650e-6
-0.608, -5.688e-6
-0.612, -5.724e-6
-0.616, -5.759e-6
-0.620, -5.798e-6
-0.624, -5.830e-6
-0.628, -5.872e-6
-0.632, -5.900e-6
-0.636, -5.944e-6
-0.640, -5.972e-6
-0.644, -6.016e-6
-0.648, -6.044e-6
-0.652, -6.087e-6
-0.656, -6.116e-6
-0.660, -6.157e-6
-0.664, -6.189e-6
-0.668, -6.227e-6
-0.672, -6.261e-6
-0.676, -6.296e-6
-0.680, -6.333e-6
-0.684, -6.365e-6
-0.688, -6.406e-6
-0.692, -6.434e-6
-0.696, -6.477e-6
-0.700, -6.504e-6
-0.704, -6.548e-6
-0.708, -6.574e-6
-0.712, -6.618e-6
-0.716, -6.646e-6
-0.720, -6.686e-6
-0.724, -6.715e-6
-0.728, -6.755e-6
-0.732, -6.787e-6
-0.736, -6.823e-6
-0.740, -6.858e-6
-0.744, -6.891e-6
-0.748, -6.930e-6
-0.752, -6.958e-6
-0.756, -6.999e-6
-0.760, -7.025e-6
-0.764, -7.067e-6
-0.768, -7.092e-6
-0.772, -7.134e-6
-0.776, -7.160e-6
-0.780, -7.203e-6
-0.784, -7.232e-6
-0.788, -7.271e-6
-0.792, -7.300e-6
-0.796, -7.334e-6
-0.800, -7.366e-6
-0.804, -7.397e-6
-0.808, -7.433e-6
-0.812, -7.460e-6
-0.816, -7.499e-6
-0.820, -7.524e-6
-0.824, -7.565e-6
-0.828, -7.588e-6
-0.832, -7.629e-6
-0.836, -7.654e-6
-0.840, -7.695e-6
-0.844, -7.718e-6
-0.848, -7.759e-6
-0.852, -7.784e-6
-0.856, -7.820e-6
-0.860, -7.847e-6
-0.864, -7.879e-6
-0.868, -7.909e-6
-0.872, -7.938e-6
-0.876, -7.975e-6
-0.880, -7.999e-6
-0.884, -8.039e-6
-0.888, -8.062e-6
-0.892, -8.102e-6
-0.896, -8.124e-6
-0.900, -8.164e-6
-0.904, -8.188e-6
-0.908, -8.228e-6
-0.912, -8.253e-6
-0.916, -8.291e-6
-0.920, -8.319e-6
-0.924, -8.353e-6
-0.928, -8.386e-6
-0.932, -8.421e-6
-0.936, -8.457e-6
-0.940, -8.486e-6
-0.944, -8.529e-6
-0.948, -8.556e-6
-0.952, -8.603e-6
-0.956, -8.628e-6
-0.960, -8.677e-6
-0.964, -8.708e-6
-0.968, -8.760e-6
-0.972, -8.792e-6
-0.976, -8.845e-6
-0.980, -8.883e-6
-0.984, -8.934e-6
-0.988, -8.979e-6
-0.992, -9.029e-6
-0.996, -9.083e-6
-0.999, -9.116e-6

Segment 2:
-1.000, -9.112e-6
-0.996, -8.832e-6
-0.992, -8.574e-6
-0.988, -8.364e-6
-0.984, -8.153e-6
-0.980, -7.978e-6
-0.976, -7.796e-6
-0.972, -7.640e-6
-0.968, -7.477e-6
-0.964, -7.338e-6
-0.960, -7.191e-6
-0.956, -7.068e-6
-0.952, -6.935e-6
-0.948, -6.812e-6
-0.944, -6.692e-6
-0.940, -6.578e-6
-0.936, -6.470e-6
-0.932, -6.361e-6
-0.928, -6.263e-6
-0.924, -6.157e-6
-0.920, -6.065e-6
-0.916, -5.963e-6
-0.912, -5.878e-6
-0.908, -5.780e-6
-0.904, -5.700e-6
-0.900, -5.609e-6
-0.896, -5.531e-6
-0.892, -5.446e-6
-0.888, -5.369e-6
-0.884, -5.290e-6
-0.880, -5.214e-6
-0.876, -5.140e-6
-0.872, -5.066e-6
-0.868, -4.997e-6
-0.864, -4.923e-6
-0.860, -4.859e-6
-0.856, -4.786e-6
-0.852, -4.726e-6
-0.848, -4.655e-6
-0.844, -4.597e-6
-0.840, -4.530e-6
-0.836, -4.473e-6
-0.832, -4.407e-6
-0.828, -4.351e-6
-0.824, -4.290e-6
-0.820, -4.234e-6
-0.816, -4.176e-6
-0.812, -4.119e-6
-0.808, -4.065e-6
-0.804, -4.007e-6
-0.800, -3.957e-6
-0.796, -3.900e-6
-0.792, -3.852e-6
-0.788, -3.796e-6
-0.784, -3.751e-6
-0.780, -3.697e-6
-0.776, -3.652e-6
-0.772, -3.598e-6
-0.768, -3.553e-6
-0.764, -3.503e-6
-0.760, -3.457e-6
-0.756, -3.408e-6
-0.752, -3.363e-6
-0.748, -3.317e-6
-0.744, -3.270e-6
-0.740, -3.228e-6
-0.736, -3.181e-6
-0.732, -3.140e-6
-0.728, -3.093e-6
-0.724, -3.053e-6
-0.720, -3.007e-6
-0.716, -2.969e-6
-0.712, -2.924e-6
-0.708, -2.886e-6
-0.704, -2.842e-6
-0.700, -2.805e-6
-0.696, -2.762e-6
-0.692, -2.725e-6
-0.688, -2.685e-6
-0.684, -2.646e-6
-0.680, -2.608e-6
-0.676, -2.569e-6
-0.672, -2.534e-6
-0.668, -2.494e-6
-0.664, -2.460e-6
-0.660, -2.420e-6
-0.656, -2.388e-6
-0.652, -2.349e-6
-0.648, -2.317e-6
-0.644, -2.279e-6
-0.640, -2.248e-6
-0.636, -2.210e-6
-0.632, -2.179e-6
-0.628, -2.143e-6
-0.624, -2.111e-6
-0.620, -2.078e-6
-0.616, -2.045e-6
-0.612, -2.013e-6
-0.608, -1.980e-6
-0.604, -1.950e-6
-0.600, -1.916e-6
-0.596, -1.889e-6
-0.592, -1.855e-6
-0.588, -1.828e-6
-0.584, -1.794e-6
-0.580, -1.767e-6
-0.576, -1.734e-6
-0.572, -1.708e-6
-0.568, -1.676e-6
-0.564, -1.649e-6
-0.560, -1.619e-6
-0.556, -1.592e-6
-0.552, -1.564e-6
-0.548, -1.535e-6
-0.544, -1.510e-6
-0.540, -1.480e-6
-0.536, -1.456e-6
-0.532, -1.426e-6
-0.528, -1.403e-6
-0.524, -1.374e-6
-0.520, -1.351e-6
-0.516, -1.322e-6
-0.512, -1.301e-6
-0.508, -1.273e-6
-0.504, -1.250e-6
-0.500, -1.224e-6
-0.496, -1.200e-6
-0.492, -1.176e-6
-0.488, -1.152e-6
-0.484, -1.129e-6
-0.480, -1.104e-6
-0.476, -1.083e-6
-0.472, -1.058e-6
-0.468, -1.037e-6
-0.464, -1.012e-6
-0.460, -9.928e-7
-0.456, -9.676e-7
-0.452, -9.490e-7
-0.448, -9.245e-7
-0.444, -9.058e-7
-0.440, -8.824e-7
-0.436, -8.632e-7
-0.432, -8.413e-7
-0.428, -8.218e-7
-0.424, -8.010e-7
-0.420, -7.805e-7
-0.416, -7.617e-7
-0.412, -7.406e-7
-0.408, -7.231e-7
-0.404, -7.018e-7
-0.400, -6.854e-7
-0.396, -6.638e-7
-0.392, -6.479e-7
-0.388, -6.267e-7
-0.384, -6.114e-7
-0.380, -5.910e-7
-0.376, -5.749e-7
-0.372, -5.555e-7
-0.368, -5.395e-7
-0.364, -5.212e-7
-0.360, -5.042e-7
-0.356, -4.875e-7
-0.352, -4.699e-7
-0.348, -4.548e-7
-0.344, -4.364e-7
-0.340, -4.224e-7
-0.336, -4.038e-7
-0.332, -3.907e-7
-0.328, -3.719e-7
-0.324, -3.592e-7
-0.320, -3.408e-7
-0.316, -3.283e-7
-0.312, -3.106e-7
-0.308, -2.977e-7
-0.304, -2.821e-7
-0.300, -2.686e-7
-0.296, -2.533e-7
-0.292, -2.389e-7
-0.288, -2.254e-7
-0.284, -2.100e-7
-0.280, -1.976e-7
-0.276, -1.817e-7
-0.272, -1.705e-7
-0.268, -1.543e-7
-0.264, -1.436e-7
-0.260, -1.272e-7
-0.256, -1.169e-7
-0.252, -1.014e-7
-0.248, -9.049e-8
-0.244, -7.581e-8
-0.240, -6.471e-8
-0.236, -5.099e-8
-0.232, -3.882e-8
-0.228, -2.651e-8
-0.224, -1.364e-8
-0.220, -3.001e-9
-0.216, 1.096e-8
-0.212, 2.072e-8
-0.208, 3.505e-8
-0.204, 4.406e-8
-0.200, 5.899e-8
-0.196, 6.758e-8
-0.192, 8.205e-8
-0.188, 9.067e-8
-0.184, 1.048e-7
-0.180, 1.140e-7
-0.176, 1.268e-7
-0.172, 1.368e-7
-0.168, 1.487e-7
-0.164, 1.599e-7
-0.160, 1.699e-7
-0.156, 1.819e-7
-0.152, 1.910e-7
-0.148, 2.040e-7
-0.144, 2.119e-7
-0.140, 2.254e-7
-0.136, 2.328e-7
-0.132, 2.464e-7
-0.128, 2.535e-7
-0.124, 2.665e-7
-0.120, 2.744e-7
-0.116, 2.866e-7
-0.112, 2.944e-7
-0.108, 3.055e-7
-0.104, 3.148e-7
-0.100, 3.241e-7
-0.096, 3.342e-7
-0.092, 3.421e-7
-0.088, 3.534e-7
-0.084, 3.600e-7
-0.080, 3.716e-7
-0.076, 3.771e-7
-0.072, 3.889e-7
-0.068, 3.937e-7
-0.064, 4.047e-7
-0.060, 4.090e-7
-0.056, 4.189e-7
-0.052, 4.237e-7
-0.048, 4.320e-7
-0.044, 4.373e-7
-0.040, 4.449e-7
-0.036, 4.519e-7
-0.032, 4.583e-7
-0.028, 4.670e-7
-0.024, 4.730e-7
-0.020, 4.829e-7
-0.016, 4.879e-7
-0.012, 4.988e-7
-0.008, 5.035e-7
-0.004, 5.147e-7
-0.001, 5.220e-7