File: data/raw_data/uvvis/170929 Gr-NH2 production/0min.csv
0min.csv;;Kemi1\Kemi01;29-09-2017 13:31:30;GENESYS 10S UV-Vis;2L9T161212;4.006
nm;A
200;2.9795
203;3.1775
206;3.2474
209;3.2178
212;3.1971
215;3.1699
218;3.1743
221;3.1664
224;3.1868
227;3.2118
230;3.235
233;3.1942
236;3.1776
239;3.1533
242;3.1746
245;3.1503
248;3.1723
251;3.1431
254;3.1519
257;3.1666
260;3.2226
263;3.1695
266;3.1425
269;3.124
272;3.1423
275;3.1134
278;3.1193
281;3.1167
284;3.1389
287;3.1907
290;3.1873
293;3.1968
296;3.2904
299;3.4042
302;3.4993
305;3.4822
308;3.4591
311;3.4015
314;3.3227
317;3.2076
320;3.1399
323;3.1035
326;3.0479
329;2.9823
332;2.9552
335;2.9284
338;2.9086
341;2.8758
344;2.8912
347;2.8551
350;2.8317
353;2.8345
356;2.823
359;2.7375
362;2.4923
365;1.9387
368;1.4311
371;1.001
374;0.6967
377;0.4999
380;0.3784
383;0.296
386;0.244
389;0.211
392;0.1892
395;0.1743
398;0.1634
401;0.1565
404;0.1512
407;0.1476
410;0.1448
413;0.143
416;0.1416
419;0.1402
422;0.1389
425;0.1376
428;0.1361
431;0.1342
434;0.132
437;0.1298
440;0.1273
443;0.125
446;0.1222
449;0.1201
452;0.1176
455;0.1151
458;0.1124
461;0.11
464;0.1074
467;0.1046
470;0.1023
473;0.0997
476;0.0972
479;0.0953
482;0.0929
485;0.0911
488;0.0891
491;0.0867
494;0.0846
497;0.0827
500;0.0807
503;0.0781
506;0.0755
509;0.0736
512;0.0711
515;0.069
518;0.0661
521;0.0639
524;0.0617
527;0.0587
530;0.0567
533;0.0541
536;0.052
539;0.0492
542;0.0469
545;0.0442
548;0.0419
551;0.04
554;0.0369
557;0.0351
560;0.0331
563;0.0312
566;0.0297
569;0.0282
572;0.0266
575;0.0252
578;0.0239
581;0.0225
584;0.0218
587;0.0211
590;0.02
593;0.0195
596;0.0187
599;0.0182
602;0.0175
605;0.0169
608;0.0165
611;0.0154
614;0.0156
617;0.0158
620;0.0146
623;0.0144
626;0.0132
629;0.0136
632;0.0137
635;0.013
638;0.0119
641;0.0126
644;0.012
647;0.0119
650;0.0118
653;0.0115
656;0.0112
659;0.0114
662;0.0111
665;0.0114
668;0.0106
671;0.0104
674;0.0102
677;0.0099
680;0.0099
683;0.0102
686;0.0098
689;0.0098
692;0.0101
695;0.0095
698;0.0098
701;0.0094
704;0.0094
707;0.0095
710;0.0091
713;0.0087
716;0.0085
719;0.0084
722;0.0084
725;0.0084
728;0.0081
731;0.0089
734;0.0084
737;0.0083
740;0.0096
743;0.0086
746;0.0081
749;0.0084
752;0.0083
755;0.0079
758;0.0076
761;0.0084
764;0.0082
767;0.0076
770;0.0078
773;0.007
776;0.008
779;0.0071
782;0.0075
785;0.0071
788;0.0076
791;0.0073
794;0.0071
797;0.0069
800;0.0074