File: data/raw_data/uvvis/170929 Gr-NH2 production/100min.csv
100min.csv;;Kemi1\Kemi01;29-09-2017 14:17:10;GENESYS 10S UV-Vis;2L9T161212;4.006
nm;A
200;2.954
203;3.109
206;3.1904
209;3.163
212;3.1241
215;3.0788
218;3.0419
221;3.0341
224;3.0767
227;3.0967
230;3.1283
233;3.0906
236;3.0811
239;3.0704
242;3.0841
245;3.0555
248;3.0609
251;3.0118
254;2.9776
257;2.9446
260;2.9524
263;2.8963
266;2.8613
269;2.837
272;2.8376
275;2.8123
278;2.8145
281;2.8153
284;2.8246
287;2.8484
290;2.847
293;2.8538
296;2.8801
299;2.7458
302;1.9918
305;1.6093
308;1.5937
311;1.7384
314;1.9685
317;2.2244
320;2.4603
323;2.6516
326;2.7428
329;2.7649
332;2.7802
335;2.7821
338;2.7705
341;2.7559
344;2.7725
347;2.7467
350;2.7303
353;2.7214
356;2.7054
359;2.5954
362;2.2935
365;1.7343
368;1.2435
371;0.8376
374;0.5564
377;0.3828
380;0.279
383;0.2144
386;0.1765
389;0.155
392;0.1403
395;0.1307
398;0.1232
401;0.1176
404;0.1132
407;0.1093
410;0.1061
413;0.1032
416;0.101
419;0.0986
422;0.0967
425;0.0948
428;0.0925
431;0.0905
434;0.0887
437;0.0868
440;0.0847
443;0.0831
446;0.0812
449;0.0795
452;0.077
455;0.0754
458;0.0736
461;0.0718
464;0.0697
467;0.0677
470;0.0651
473;0.0626
476;0.0605
479;0.0581
482;0.0557
485;0.0542
488;0.0515
491;0.0489
494;0.0473
497;0.0452
500;0.0419
503;0.0402
506;0.0376
509;0.0353
512;0.0346
515;0.0327
518;0.0315
521;0.0281
524;0.0272
527;0.0258
530;0.0245
533;0.0233
536;0.0216
539;0.0204
542;0.0202
545;0.0185
548;0.0175
551;0.0167
554;0.0162
557;0.0157
560;0.0146
563;0.0144
566;0.0137
569;0.0134
572;0.0135
575;0.0121
578;0.0123
581;0.0116
584;0.0107
587;0.0103
590;0.0103
593;0.01
596;0.0103
599;0.01
602;0.01
605;0.0099
608;0.0096
611;0.0089
614;0.0084
617;0.0079
620;0.0081
623;0.0087
626;0.0085
629;0.0078
632;0.0074
635;0.0075
638;0.0069
641;0.007
644;0.0066
647;0.0063
650;0.0065
653;0.006
656;0.0054
659;0.0056
662;0.0059
665;0.006
668;0.0055
671;0.0066
674;0.0058
677;0.0054
680;0.0058
683;0.0063
686;0.0069
689;0.0061
692;0.0057
695;0.0061
698;0.0062
701;0.0053
704;0.0058
707;0.0044
710;0.0059
713;0.0048
716;0.0052
719;0.0054
722;0.0057
725;0.0054
728;0.0046
731;0.004
734;0.0051
737;0.0043
740;0.0046
743;0.0042
746;0.0039
749;0.006
752;0.0052
755;0.0045
758;0.005
761;0.005
764;0.0045
767;0.0044
770;0.004
773;0.0052
776;0.0042
779;0.0042
782;0.0042
785;0.0043
788;0.0045
791;0.004
794;0.0039
797;0.005
800;0.0063