File: data/raw_data/uvvis/170929 Gr-NH2 production/10min.csv
10min.csv;;Kemi1\Kemi01;29-09-2017 13:36:46;GENESYS 10S UV-Vis;2L9T161212;4.006
nm;A
200;3.0181
203;3.1848
206;3.2499
209;3.2358
212;3.2103
215;3.1967
218;3.1848
221;3.1781
224;3.1811
227;3.2129
230;3.2513
233;3.1986
236;3.1882
239;3.1861
242;3.1983
245;3.1669
248;3.1927
251;3.1621
254;3.1629
257;3.1709
260;3.2064
263;3.165
266;3.129
269;3.1021
272;3.1136
275;3.0909
278;3.0912
281;3.0743
284;3.0978
287;3.1391
290;3.1457
293;3.1467
296;3.2294
299;3.327
302;3.4135
305;3.402
308;3.4058
311;3.3236
314;3.2416
317;3.1442
320;3.0988
323;3.0758
326;3.0201
329;2.9724
332;2.9619
335;2.9397
338;2.9195
341;2.8898
344;2.908
347;2.8738
350;2.8553
353;2.849
356;2.8404
359;2.7501
362;2.4985
365;1.974
368;1.4845
371;1.0656
374;0.7627
377;0.5643
380;0.439
383;0.3544
386;0.3009
389;0.2673
392;0.2443
395;0.2284
398;0.2165
401;0.2082
404;0.2016
407;0.1969
410;0.1925
413;0.1897
416;0.1871
419;0.185
422;0.1832
425;0.1818
428;0.1804
431;0.1791
434;0.1775
437;0.1763
440;0.1745
443;0.1729
446;0.1708
449;0.169
452;0.1666
455;0.1644
458;0.1617
461;0.1587
464;0.1552
467;0.1516
470;0.1474
473;0.1439
476;0.1393
479;0.1346
482;0.1296
485;0.1253
488;0.1203
491;0.1149
494;0.1102
497;0.1053
500;0.1
503;0.0949
506;0.09
509;0.0851
512;0.0803
515;0.076
518;0.0713
521;0.0668
524;0.0627
527;0.0584
530;0.0552
533;0.0511
536;0.0479
539;0.0447
542;0.0415
545;0.0389
548;0.0367
551;0.0341
554;0.0316
557;0.0297
560;0.028
563;0.0263
566;0.0242
569;0.0229
572;0.0216
575;0.0202
578;0.0196
581;0.0184
584;0.0173
587;0.0169
590;0.0155
593;0.0153
596;0.0149
599;0.0141
602;0.0135
605;0.0131
608;0.0122
611;0.0121
614;0.0117
617;0.011
620;0.011
623;0.0101
626;0.0101
629;0.0098
632;0.0093
635;0.0094
638;0.009
641;0.0085
644;0.0082
647;0.0082
650;0.0081
653;0.0079
656;0.0075
659;0.0072
662;0.0069
665;0.0072
668;0.0075
671;0.0069
674;0.0069
677;0.0067
680;0.0069
683;0.0068
686;0.0063
689;0.0061
692;0.0059
695;0.0056
698;0.0062
701;0.0061
704;0.0064
707;0.0062
710;0.0064
713;0.0049
716;0.0056
719;0.0049
722;0.0055
725;0.0047
728;0.0047
731;0.0057
734;0.0055
737;0.0052
740;0.0056
743;0.0056
746;0.0048
749;0.0052
752;0.005
755;0.0045
758;0.0044
761;0.0053
764;0.0046
767;0.0044
770;0.0046
773;0.0052
776;0.0051
779;0.0045
782;0.0038
785;0.0053
788;0.0039
791;0.0043
794;0.0045
797;0.0046
800;0.0052