File: data/raw_data/uvvis/170929 Gr-NH2 production/20min.csv
20min.csv;;Kemi1\Kemi01;29-09-2017 13:41:09;GENESYS 10S UV-Vis;2L9T161212;4.006
nm;A
200;3.0182
203;3.1698
206;3.2436
209;3.2215
212;3.2055
215;3.1689
218;3.161
221;3.1494
224;3.1661
227;3.1993
230;3.2232
233;3.1874
236;3.1702
239;3.1464
242;3.1699
245;3.1452
248;3.1647
251;3.1164
254;3.1263
257;3.1124
260;3.1508
263;3.1007
266;3.062
269;3.0401
272;3.0398
275;3.0204
278;3.0221
281;3.0117
284;3.0292
287;3.0659
290;3.0719
293;3.0808
296;3.1498
299;3.2403
302;3.326
305;3.2865
308;3.2303
311;3.149
314;3.081
317;3.0256
320;2.9924
323;2.9864
326;2.9681
329;2.929
332;2.92
335;2.8983
338;2.8836
341;2.8588
344;2.8767
347;2.8463
350;2.822
353;2.8139
356;2.8045
359;2.7007
362;2.4092
365;1.862
368;1.3745
371;0.966
374;0.6782
377;0.495
380;0.3829
383;0.3092
386;0.2637
389;0.2357
392;0.217
395;0.2038
398;0.1945
401;0.1879
404;0.1824
407;0.1785
410;0.1749
413;0.1726
416;0.1701
419;0.1682
422;0.1668
425;0.1656
428;0.1641
431;0.1622
434;0.1611
437;0.1595
440;0.1579
443;0.1561
446;0.154
449;0.152
452;0.1494
455;0.1469
458;0.1443
461;0.141
464;0.1377
467;0.1341
470;0.1305
473;0.1265
476;0.1225
479;0.1186
482;0.1136
485;0.1093
488;0.1049
491;0.1001
494;0.0953
497;0.091
500;0.0868
503;0.082
506;0.0777
509;0.0736
512;0.0695
515;0.0653
518;0.0616
521;0.0578
524;0.0541
527;0.0506
530;0.0477
533;0.0447
536;0.0421
539;0.0393
542;0.0368
545;0.0346
548;0.0328
551;0.0308
554;0.0293
557;0.0276
560;0.0259
563;0.0246
566;0.0237
569;0.0222
572;0.0207
575;0.0197
578;0.019
581;0.0182
584;0.0177
587;0.0166
590;0.0162
593;0.0159
596;0.0153
599;0.0147
602;0.014
605;0.0137
608;0.0133
611;0.013
614;0.0128
617;0.0117
620;0.012
623;0.011
626;0.0106
629;0.0103
632;0.0105
635;0.0093
638;0.0103
641;0.0083
644;0.0082
647;0.0084
650;0.0083
653;0.0077
656;0.0078
659;0.0086
662;0.0072
665;0.0074
668;0.0078
671;0.0071
674;0.0073
677;0.0072
680;0.0072
683;0.0076
686;0.0074
689;0.008
692;0.0073
695;0.0071
698;0.007
701;0.0071
704;0.006
707;0.0066
710;0.0062
713;0.0058
716;0.0057
719;0.007
722;0.0057
725;0.0052
728;0.0054
731;0.0057
734;0.0055
737;0.0055
740;0.0055
743;0.0062
746;0.0044
749;0.0046
752;0.0049
755;0.0057
758;0.0049
761;0.0053
764;0.0046
767;0.0051
770;0.0046
773;0.0051
776;0.0043
779;0.0045
782;0.0042
785;0.0047
788;0.0045
791;0.0041
794;0.0047
797;0.005
800;0.0057