File: data/raw_data/uvvis/170929 Gr-NH2 production/30min.csv
30min.csv;;Kemi1\Kemi01;29-09-2017 13:46:00;GENESYS 10S UV-Vis;2L9T161212;4.006
nm;A
200;2.9902
203;3.1241
206;3.221
209;3.1971
212;3.1573
215;3.1275
218;3.0946
221;3.0878
224;3.1181
227;3.14
230;3.17
233;3.1308
236;3.1224
239;3.1012
242;3.1269
245;3.0912
248;3.1102
251;3.0671
254;3.0493
257;3.0254
260;3.0587
263;3.0113
266;2.9747
269;2.9565
272;2.9565
275;2.9317
278;2.9349
281;2.9314
284;2.9511
287;2.982
290;2.9879
293;3.0019
296;3.0557
299;3.1424
302;3.1682
305;3.0384
308;2.933
311;2.8731
314;2.8563
317;2.8501
320;2.8738
323;2.8924
326;2.8854
329;2.8558
332;2.8607
335;2.844
338;2.8284
341;2.8121
344;2.8242
347;2.7875
350;2.7718
353;2.7676
356;2.7541
359;2.6498
362;2.3552
365;1.798
368;1.3052
371;0.8958
374;0.6117
377;0.4323
380;0.3246
383;0.2553
386;0.2137
389;0.1882
392;0.1717
395;0.1605
398;0.1518
401;0.1454
404;0.1402
407;0.1357
410;0.1323
413;0.1291
416;0.1266
419;0.124
422;0.1217
425;0.1194
428;0.1175
431;0.1151
434;0.1131
437;0.1109
440;0.1086
443;0.1063
446;0.1039
449;0.1016
452;0.0993
455;0.0967
458;0.0943
461;0.0917
464;0.089
467;0.0861
470;0.0827
473;0.0804
476;0.0773
479;0.074
482;0.071
485;0.0682
488;0.0655
491;0.0625
494;0.0597
497;0.0568
500;0.054
503;0.0516
506;0.0486
509;0.0459
512;0.0436
515;0.0412
518;0.0388
521;0.0366
524;0.0349
527;0.0331
530;0.0313
533;0.0295
536;0.0282
539;0.0264
542;0.0252
545;0.0239
548;0.0235
551;0.0224
554;0.0207
557;0.0196
560;0.0193
563;0.0183
566;0.0178
569;0.0166
572;0.0166
575;0.0155
578;0.0144
581;0.0144
584;0.0141
587;0.0139
590;0.0135
593;0.0127
596;0.0127
599;0.0123
602;0.0124
605;0.0125
608;0.0118
611;0.0112
614;0.0107
617;0.0101
620;0.0098
623;0.0099
626;0.0097
629;0.0094
632;0.0092
635;0.0091
638;0.0085
641;0.0084
644;0.0083
647;0.0078
650;0.008
653;0.0076
656;0.008
659;0.007
662;0.0073
665;0.007
668;0.0074
671;0.0076
674;0.0076
677;0.0072
680;0.0068
683;0.008
686;0.0075
689;0.007
692;0.0067
695;0.0066
698;0.0061
701;0.006
704;0.006
707;0.0052
710;0.0054
713;0.0049
716;0.0052
719;0.0059
722;0.0048
725;0.0053
728;0.0047
731;0.0048
734;0.0057
737;0.0061
740;0.005
743;0.0058
746;0.0044
749;0.0047
752;0.0043
755;0.0052
758;0.005
761;0.0054
764;0.0042
767;0.0046
770;0.005
773;0.0038
776;0.0041
779;0.0043
782;0.0049
785;0.0039
788;0.0045
791;0.0038
794;0.0042
797;0.0046
800;0.0052