File: data/raw_data/uvvis/170929 Gr-NH2 production/40min.csv
40min.csv;;Kemi1\Kemi01;29-09-2017 13:50:22;GENESYS 10S UV-Vis;2L9T161212;4.006
nm;A
200;2.9457
203;3.1102
206;3.215
209;3.1767
212;3.1419
215;3.1091
218;3.0835
221;3.0785
224;3.099
227;3.1231
230;3.1525
233;3.1098
236;3.1041
239;3.0892
242;3.1109
245;3.0782
248;3.0921
251;3.0498
254;3.0283
257;3.0073
260;3.0306
263;2.9818
266;2.9483
269;2.9205
272;2.9277
275;2.905
278;2.9054
281;2.9017
284;2.9229
287;2.9483
290;2.9514
293;2.9644
296;3.0211
299;3.0914
302;3.0532
305;2.8387
308;2.724
311;2.6971
314;2.7158
317;2.7539
320;2.803
323;2.8451
326;2.8522
329;2.8342
332;2.834
335;2.8277
338;2.8071
341;2.794
344;2.8061
347;2.7724
350;2.7516
353;2.7499
356;2.7298
359;2.6205
362;2.32
365;1.7645
368;1.2754
371;0.8719
374;0.5913
377;0.4151
380;0.3094
383;0.2405
386;0.1995
389;0.1744
392;0.1584
395;0.1467
398;0.1379
401;0.1316
404;0.1261
407;0.1215
410;0.1175
413;0.1143
416;0.1111
419;0.1084
422;0.1055
425;0.103
428;0.101
431;0.0981
434;0.0952
437;0.0934
440;0.091
443;0.0886
446;0.0862
449;0.0838
452;0.0814
455;0.079
458;0.0763
461;0.0745
464;0.0716
467;0.0693
470;0.0665
473;0.0641
476;0.0613
479;0.0592
482;0.0563
485;0.054
488;0.0517
491;0.0494
494;0.0466
497;0.0449
500;0.0428
503;0.0406
506;0.0386
509;0.0365
512;0.035
515;0.0327
518;0.0316
521;0.0294
524;0.0283
527;0.0269
530;0.0256
533;0.0243
536;0.0228
539;0.0221
542;0.0209
545;0.0198
548;0.0195
551;0.0178
554;0.0175
557;0.0167
560;0.0157
563;0.0151
566;0.0155
569;0.0148
572;0.0135
575;0.0133
578;0.0135
581;0.013
584;0.0118
587;0.0115
590;0.012
593;0.0116
596;0.0119
599;0.0105
602;0.0105
605;0.0101
608;0.0098
611;0.0092
614;0.0093
617;0.0088
620;0.0081
623;0.0084
626;0.008
629;0.0074
632;0.0079
635;0.0077
638;0.0071
641;0.0074
644;0.007
647;0.0066
650;0.0065
653;0.0064
656;0.0074
659;0.0059
662;0.0056
665;0.0058
668;0.006
671;0.0072
674;0.0057
677;0.006
680;0.0058
683;0.0058
686;0.0065
689;0.006
692;0.0054
695;0.0052
698;0.0057
701;0.0049
704;0.0051
707;0.0049
710;0.0048
713;0.0045
716;0.0045
719;0.0042
722;0.0041
725;0.0038
728;0.0044
731;0.0041
734;0.0043
737;0.0058
740;0.0051
743;0.0038
746;0.0045
749;0.0035
752;0.0039
755;0.0045
758;0.0035
761;0.0039
764;0.0034
767;0.0031
770;0.0037
773;0.0045
776;0.0035
779;0.0032
782;0.0025
785;0.0035
788;0.0029
791;0.0026
794;0.0029
797;0.0029
800;0.0048