File: data/raw_data/uvvis/170929 Gr-NH2 production/50min.csv
50min.csv;;Kemi1\Kemi01;29-09-2017 13:54:44;GENESYS 10S UV-Vis;2L9T161212;4.006
nm;A
200;2.9624
203;3.1141
206;3.1937
209;3.1552
212;3.1362
215;3.0911
218;3.0727
221;3.0626
224;3.0905
227;3.1087
230;3.1324
233;3.0941
236;3.0887
239;3.0712
242;3.0914
245;3.0625
248;3.0699
251;3.0218
254;2.9939
257;2.9691
260;2.9855
263;2.9331
266;2.8994
269;2.8734
272;2.8832
275;2.8579
278;2.8588
281;2.86
284;2.8724
287;2.8992
290;2.903
293;2.9143
296;2.9622
299;2.997
302;2.7366
305;2.3747
308;2.2841
311;2.3182
314;2.4232
317;2.5464
320;2.6672
323;2.7664
326;2.8047
329;2.8005
332;2.8082
335;2.8009
338;2.7895
341;2.7714
344;2.7854
347;2.7569
350;2.7343
353;2.7325
356;2.719
359;2.5993
362;2.288
365;1.7329
368;1.2465
371;0.8467
374;0.5694
377;0.3958
380;0.2918
383;0.2246
386;0.1848
389;0.1609
392;0.1452
395;0.1344
398;0.1255
401;0.1199
404;0.1143
407;0.1099
410;0.1063
413;0.1029
416;0.0999
419;0.097
422;0.0944
425;0.0918
428;0.0893
431;0.0867
434;0.0843
437;0.0822
440;0.0793
443;0.0772
446;0.0747
449;0.0728
452;0.0705
455;0.0681
458;0.0662
461;0.0641
464;0.0614
467;0.06
470;0.057
473;0.0553
476;0.0534
479;0.0507
482;0.0488
485;0.0468
488;0.045
491;0.0429
494;0.041
497;0.0387
500;0.0372
503;0.0356
506;0.0337
509;0.0322
512;0.0309
515;0.0294
518;0.0283
521;0.0266
524;0.0253
527;0.0246
530;0.0233
533;0.0225
536;0.0212
539;0.0204
542;0.0195
545;0.0187
548;0.0186
551;0.0174
554;0.0167
557;0.0155
560;0.0153
563;0.0147
566;0.0156
569;0.0145
572;0.0133
575;0.0143
578;0.0126
581;0.0124
584;0.0118
587;0.0114
590;0.012
593;0.0104
596;0.0108
599;0.0106
602;0.0104
605;0.0107
608;0.0097
611;0.0095
614;0.009
617;0.0091
620;0.0094
623;0.0087
626;0.0083
629;0.0086
632;0.0088
635;0.008
638;0.0076
641;0.0066
644;0.0069
647;0.0068
650;0.0067
653;0.0075
656;0.0069
659;0.0066
662;0.006
665;0.0069
668;0.0064
671;0.007
674;0.0065
677;0.0063
680;0.006
683;0.0077
686;0.0066
689;0.0064
692;0.0068
695;0.0054
698;0.0054
701;0.0048
704;0.0051
707;0.0057
710;0.0061
713;0.0051
716;0.0056
719;0.0051
722;0.0042
725;0.0041
728;0.0043
731;0.0055
734;0.005
737;0.0051
740;0.0047
743;0.0043
746;0.0056
749;0.0042
752;0.0046
755;0.005
758;0.0048
761;0.0045
764;0.0042
767;0.0047
770;0.0042
773;0.0039
776;0.0041
779;0.0043
782;0.0039
785;0.0042
788;0.0031
791;0.0045
794;0.0041
797;0.0038
800;0.0054