File: data/raw_data/uvvis/170929 Gr-NH2 production/60min.csv
60min.csv;;Kemi1\Kemi01;29-09-2017 13:59:14;GENESYS 10S UV-Vis;2L9T161212;4.006
nm;A
200;2.97
203;3.1197
206;3.1916
209;3.1609
212;3.1211
215;3.0969
218;3.0677
221;3.0515
224;3.0765
227;3.1029
230;3.1373
233;3.0939
236;3.0905
239;3.0771
242;3.0895
245;3.0583
248;3.0689
251;3.0213
254;2.9988
257;2.9639
260;2.9746
263;2.9238
266;2.8884
269;2.8623
272;2.8632
275;2.8404
278;2.8412
281;2.8444
284;2.8517
287;2.8847
290;2.8783
293;2.8938
296;2.9248
299;2.8878
302;2.3364
305;1.9601
308;1.9049
311;1.9935
314;2.16
317;2.3506
320;2.535
323;2.6878
326;2.7605
329;2.7779
332;2.7989
335;2.7919
338;2.7847
341;2.7701
344;2.7852
347;2.7493
350;2.7334
353;2.7299
356;2.7078
359;2.5716
362;2.244
365;1.6883
368;1.2135
371;0.8259
374;0.5574
377;0.389
380;0.2888
383;0.2247
386;0.1864
389;0.1634
392;0.1479
395;0.1373
398;0.1286
401;0.1225
404;0.1173
407;0.1131
410;0.1093
413;0.106
416;0.1028
419;0.0999
422;0.0974
425;0.0952
428;0.093
431;0.0902
434;0.0881
437;0.0861
440;0.0837
443;0.0817
446;0.0792
449;0.0773
452;0.0752
455;0.0733
458;0.0713
461;0.0687
464;0.0673
467;0.0649
470;0.0631
473;0.0605
476;0.0584
479;0.0557
482;0.0537
485;0.0516
488;0.0499
491;0.0475
494;0.0457
497;0.0439
500;0.0407
503;0.0399
506;0.0369
509;0.036
512;0.0336
515;0.0322
518;0.03
521;0.0294
524;0.0278
527;0.0257
530;0.0255
533;0.0239
536;0.0223
539;0.0212
542;0.0205
545;0.02
548;0.0192
551;0.0177
554;0.017
557;0.016
560;0.016
563;0.015
566;0.0148
569;0.015
572;0.0138
575;0.0128
578;0.013
581;0.0123
584;0.0119
587;0.0113
590;0.0116
593;0.0116
596;0.0109
599;0.0104
602;0.01
605;0.0097
608;0.0099
611;0.0095
614;0.0096
617;0.0088
620;0.0089
623;0.0088
626;0.0085
629;0.0081
632;0.0081
635;0.0074
638;0.0071
641;0.0072
644;0.0064
647;0.0065
650;0.0069
653;0.0067
656;0.0062
659;0.0058
662;0.0066
665;0.0068
668;0.0057
671;0.0064
674;0.0071
677;0.0067
680;0.0062
683;0.0069
686;0.0057
689;0.007
692;0.0056
695;0.0057
698;0.0077
701;0.007
704;0.0048
707;0.0042
710;0.0039
713;0.004
716;0.0047
719;0.0042
722;0.0043
725;0.0043
728;0.0055
731;0.0048
734;0.0058
737;0.0055
740;0.0041
743;0.0042
746;0.0046
749;0.0034
752;0.0039
755;0.0041
758;0.0042
761;0.0043
764;0.0038
767;0.0029
770;0.0035
773;0.0031
776;0.0031
779;0.0032
782;0.0035
785;0.0036
788;0.0035
791;0.0029
794;0.002
797;0.0028
800;0.0043