File: data/raw_data/uvvis/170929 Gr-NH2 production/70min.csv
70min.csv;;Kemi1\Kemi01;29-09-2017 14:03:50;GENESYS 10S UV-Vis;2L9T161212;4.006
nm;A
200;2.9666
203;3.1288
206;3.1791
209;3.1704
212;3.1147
215;3.0668
218;3.0488
221;3.0385
224;3.0731
227;3.1016
230;3.1297
233;3.0955
236;3.0927
239;3.0726
242;3.0885
245;3.0584
248;3.0626
251;3.0161
254;2.9893
257;2.9547
260;2.9607
263;2.9107
266;2.876
269;2.8493
272;2.8499
275;2.829
278;2.8289
281;2.8309
284;2.8401
287;2.8593
290;2.8624
293;2.8745
296;2.9028
299;2.8435
302;2.2114
305;1.8207
308;1.7863
311;1.9084
314;2.1144
317;2.3397
320;2.5427
323;2.701
326;2.7669
329;2.7797
332;2.7981
335;2.7914
338;2.7784
341;2.7643
344;2.7778
347;2.7491
350;2.7317
353;2.7286
356;2.7113
359;2.608
362;2.3178
365;1.7579
368;1.2582
371;0.8464
374;0.5625
377;0.3858
380;0.2807
383;0.2149
386;0.1769
389;0.1547
392;0.1403
395;0.1312
398;0.1234
401;0.1177
404;0.1139
407;0.1098
410;0.1064
413;0.1036
416;0.1011
419;0.0983
422;0.0961
425;0.0941
428;0.0921
431;0.0903
434;0.0884
437;0.0861
440;0.084
443;0.0824
446;0.0802
449;0.0787
452;0.0766
455;0.0746
458;0.0726
461;0.0704
464;0.0689
467;0.0669
470;0.0647
473;0.0624
476;0.0596
479;0.0578
482;0.0548
485;0.0528
488;0.0508
491;0.0486
494;0.0468
497;0.0441
500;0.042
503;0.0391
506;0.037
509;0.0358
512;0.0345
515;0.0323
518;0.0308
521;0.0284
524;0.0269
527;0.026
530;0.0256
533;0.024
536;0.0224
539;0.0213
542;0.0205
545;0.0196
548;0.0193
551;0.018
554;0.0169
557;0.0162
560;0.0156
563;0.0153
566;0.0144
569;0.0141
572;0.0145
575;0.013
578;0.0129
581;0.0118
584;0.0117
587;0.0117
590;0.0107
593;0.0114
596;0.0109
599;0.0111
602;0.0111
605;0.0103
608;0.0102
611;0.0096
614;0.0092
617;0.0095
620;0.0096
623;0.0088
626;0.0083
629;0.0087
632;0.0081
635;0.0079
638;0.0082
641;0.0072
644;0.0074
647;0.0071
650;0.0072
653;0.0072
656;0.007
659;0.0066
662;0.0073
665;0.0061
668;0.0072
671;0.0066
674;0.0066
677;0.0062
680;0.0063
683;0.0069
686;0.0061
689;0.0058
692;0.0053
695;0.0059
698;0.0055
701;0.0058
704;0.0049
707;0.0043
710;0.0041
713;0.0048
716;0.0044
719;0.0035
722;0.0042
725;0.0036
728;0.004
731;0.0045
734;0.0038
737;0.0045
740;0.0044
743;0.005
746;0.0044
749;0.0043
752;0.0043
755;0.0039
758;0.0048
761;0.004
764;0.004
767;0.0033
770;0.0037
773;0.0038
776;0.0037
779;0.0028
782;0.0036
785;0.0025
788;0.004
791;0.0029
794;0.0032
797;0.0036
800;0.0052