File: data/raw_data/uvvis/170929 Gr-NH2 production/80min.csv
80min.csv;;Kemi1\Kemi01;29-09-2017 14:08:09;GENESYS 10S UV-Vis;2L9T161212;4.006
nm;A
200;2.9582
203;3.1286
206;3.1832
209;3.1707
212;3.1311
215;3.0901
218;3.0495
221;3.0402
224;3.0642
227;3.0966
230;3.124
233;3.0871
236;3.0874
239;3.0713
242;3.0822
245;3.0466
248;3.0614
251;3.0102
254;2.9821
257;2.9385
260;2.9494
263;2.8952
266;2.8645
269;2.8385
272;2.8394
275;2.8129
278;2.8165
281;2.82
284;2.8279
287;2.8626
290;2.847
293;2.862
296;2.8873
299;2.8053
302;2.1161
305;1.7284
308;1.7051
311;1.8443
314;2.0674
317;2.3091
320;2.5292
323;2.6959
326;2.7665
329;2.7759
332;2.7928
335;2.7949
338;2.7838
341;2.7644
344;2.7853
347;2.7527
350;2.7339
353;2.7258
356;2.7139
359;2.6141
362;2.3349
365;1.7739
368;1.2695
371;0.8543
374;0.5659
377;0.3878
380;0.282
383;0.2153
386;0.1766
389;0.1547
392;0.1401
395;0.1305
398;0.1222
401;0.1173
404;0.1128
407;0.1089
410;0.1053
413;0.1023
416;0.0995
419;0.097
422;0.0947
425;0.0926
428;0.0906
431;0.0887
434;0.0867
437;0.0848
440;0.0826
443;0.0808
446;0.0786
449;0.077
452;0.0751
455;0.0729
458;0.0713
461;0.0693
464;0.0672
467;0.0651
470;0.063
473;0.0611
476;0.0591
479;0.0568
482;0.0542
485;0.0519
488;0.05
491;0.0473
494;0.0454
497;0.0434
500;0.0414
503;0.04
506;0.0376
509;0.035
512;0.0341
515;0.0317
518;0.0307
521;0.0288
524;0.0275
527;0.0266
530;0.0252
533;0.0247
536;0.023
539;0.0209
542;0.0205
545;0.0204
548;0.0192
551;0.0177
554;0.017
557;0.0165
560;0.0156
563;0.0151
566;0.0147
569;0.0141
572;0.0135
575;0.0134
578;0.0132
581;0.0121
584;0.0129
587;0.0113
590;0.012
593;0.0105
596;0.0116
599;0.0114
602;0.01
605;0.0112
608;0.0096
611;0.0101
614;0.0094
617;0.0101
620;0.009
623;0.0085
626;0.0093
629;0.0092
632;0.0083
635;0.0083
638;0.0083
641;0.0081
644;0.0074
647;0.0077
650;0.0078
653;0.0082
656;0.0075
659;0.0063
662;0.0064
665;0.0066
668;0.0081
671;0.0069
674;0.0067
677;0.0071
680;0.0078
683;0.0069
686;0.0067
689;0.006
692;0.0066
695;0.0075
698;0.0064
701;0.0061
704;0.0057
707;0.0054
710;0.0051
713;0.0051
716;0.005
719;0.0052
722;0.0049
725;0.0041
728;0.0047
731;0.0054
734;0.0049
737;0.0049
740;0.0043
743;0.0057
746;0.0043
749;0.0045
752;0.0046
755;0.0041
758;0.0044
761;0.0045
764;0.004
767;0.0048
770;0.0038
773;0.004
776;0.0041
779;0.0043
782;0.0032
785;0.0041
788;0.0027
791;0.0043
794;0.0044
797;0.004
800;0.0055