File: data/raw_data/uvvis/170929 Gr-NH2 production/90min.csv
90min.csv;;Kemi1\Kemi01;29-09-2017 14:12:59;GENESYS 10S UV-Vis;2L9T161212;4.006
nm;A
200;2.9552
203;3.1126
206;3.1898
209;3.1611
212;3.121
215;3.077
218;3.0483
221;3.0317
224;3.0731
227;3.0925
230;3.1175
233;3.0765
236;3.0829
239;3.0627
242;3.0813
245;3.0493
248;3.0571
251;3.0054
254;2.972
257;2.9398
260;2.9426
263;2.8891
266;2.8575
269;2.8345
272;2.833
275;2.8053
278;2.811
281;2.8159
284;2.825
287;2.8454
290;2.845
293;2.8518
296;2.8778
299;2.7278
302;1.973
305;1.6023
308;1.5851
311;1.7214
314;1.9416
317;2.1873
320;2.4242
323;2.6181
326;2.7171
329;2.7579
332;2.7735
335;2.7753
338;2.7698
341;2.7546
344;2.7721
347;2.7388
350;2.7213
353;2.7139
356;2.6957
359;2.5636
362;2.2341
365;1.6778
368;1.1984
371;0.8083
374;0.5381
377;0.371
380;0.2722
383;0.2095
386;0.1734
389;0.1524
392;0.1385
395;0.1291
398;0.1213
401;0.1166
404;0.1114
407;0.1067
410;0.1036
413;0.1009
416;0.0977
419;0.0957
422;0.0935
425;0.0913
428;0.0892
431;0.0869
434;0.0851
437;0.0833
440;0.0809
443;0.0793
446;0.077
449;0.0753
452;0.0737
455;0.0717
458;0.0699
461;0.0679
464;0.066
467;0.0637
470;0.0621
473;0.0597
476;0.0579
479;0.0554
482;0.053
485;0.0511
488;0.0493
491;0.0468
494;0.0453
497;0.0437
500;0.041
503;0.0391
506;0.0376
509;0.0348
512;0.0341
515;0.0316
518;0.0308
521;0.0296
524;0.0278
527;0.0259
530;0.0252
533;0.0233
536;0.023
539;0.022
542;0.0206
545;0.0204
548;0.0192
551;0.0179
554;0.0167
557;0.0166
560;0.0172
563;0.0155
566;0.0153
569;0.0142
572;0.0145
575;0.014
578;0.0123
581;0.012
584;0.013
587;0.0134
590;0.0119
593;0.0116
596;0.0111
599;0.0107
602;0.0113
605;0.0114
608;0.0109
611;0.0094
614;0.0102
617;0.0093
620;0.0088
623;0.0092
626;0.0102
629;0.0098
632;0.0093
635;0.0073
638;0.0087
641;0.0077
644;0.0073
647;0.007
650;0.0066
653;0.0069
656;0.0067
659;0.0082
662;0.0064
665;0.0065
668;0.0073
671;0.0078
674;0.0068
677;0.007
680;0.0061
683;0.006
686;0.0077
689;0.0064
692;0.0059
695;0.005
698;0.0061
701;0.0056
704;0.0054
707;0.0054
710;0.0048
713;0.0052
716;0.0055
719;0.0048
722;0.005
725;0.0045
728;0.0042
731;0.0041
734;0.0053
737;0.004
740;0.0043
743;0.0045
746;0.0032
749;0.0031
752;0.0046
755;0.004
758;0.0044
761;0.0043
764;0.0044
767;0.0034
770;0.0045
773;0.003
776;0.0024
779;0.0046
782;0.004
785;0.0035
788;0.0035
791;0.0033
794;0.0033
797;0.0038
800;0.0053