File: data/raw_data/uvvis/20171020_GrNH2_azodye/171020_20min.csv
171020_20min.csv;;Kemi1\Kemi01;20-10-2017 13:19:16;GENESYS 10S UV-Vis;2L9T161212;4.006
nm;A
200;3.0317
203;3.1655
206;3.2397
209;3.2321
212;3.2079
215;3.2142
218;3.2368
221;3.2525
224;3.2983
227;3.3191
230;3.3568
233;3.2998
236;3.2853
239;3.2683
242;3.3108
245;3.2747
248;3.302
251;3.2479
254;3.2615
257;3.2506
260;3.2895
263;3.238
266;3.2018
269;3.1795
272;3.1885
275;3.1698
278;3.1667
281;3.1703
284;3.1804
287;3.2355
290;3.2206
293;3.2204
296;3.3035
299;3.393
302;3.4959
305;3.485
308;3.4773
311;3.4016
314;3.3232
317;3.2311
320;3.1812
323;3.1735
326;3.1182
329;3.0549
332;3.0516
335;3.0216
338;3.0054
341;2.979
344;2.9972
347;2.9613
350;2.9381
353;2.9432
356;2.9279
359;2.8374
362;2.5717
365;2.0315
368;1.5342
371;1.1099
374;0.806
377;0.6082
380;0.4862
383;0.4051
386;0.3559
389;0.3267
392;0.3085
395;0.2973
398;0.2901
401;0.286
404;0.2834
407;0.2822
410;0.2815
413;0.2811
416;0.2805
419;0.28
422;0.2784
425;0.2775
428;0.2755
431;0.273
434;0.2702
437;0.2674
440;0.2642
443;0.2609
446;0.2578
449;0.2547
452;0.2514
455;0.2483
458;0.245
461;0.2425
464;0.2402
467;0.2381
470;0.2366
473;0.2356
476;0.2349
479;0.2345
482;0.2345
485;0.2345
488;0.2348
491;0.2341
494;0.2326
497;0.2297
500;0.2258
503;0.2209
506;0.2161
509;0.2109
512;0.2051
515;0.1992
518;0.193
521;0.1866
524;0.1794
527;0.1723
530;0.1652
533;0.1568
536;0.1491
539;0.1409
542;0.1327
545;0.1246
548;0.1164
551;0.1087
554;0.1009
557;0.0932
560;0.0861
563;0.0795
566;0.0726
569;0.0669
572;0.0612
575;0.0562
578;0.052
581;0.0472
584;0.0441
587;0.0395
590;0.0366
593;0.0335
596;0.0309
599;0.0291
602;0.0266
605;0.0248
608;0.0233
611;0.022
614;0.02
617;0.0191
620;0.0181
623;0.0169
626;0.0159
629;0.0152
632;0.0139
635;0.0135
638;0.0128
641;0.0122
644;0.0118
647;0.0107
650;0.0107
653;0.0109
656;0.0101
659;0.01
662;0.0099
665;0.009
668;0.0091
671;0.0089
674;0.009
677;0.0081
680;0.0084
683;0.0087
686;0.0078
689;0.0081
692;0.0082
695;0.0082
698;0.0076
701;0.0065
704;0.007
707;0.0073
710;0.0071
713;0.0065
716;0.0064
719;0.0059
722;0.0059
725;0.006
728;0.0061
731;0.0056
734;0.0064
737;0.0056
740;0.0059
743;0.0062
746;0.0051
749;0.0048
752;0.0048
755;0.0052
758;0.0047
761;0.0051
764;0.0045
767;0.0041
770;0.0048
773;0.0048
776;0.004
779;0.0044
782;0.0044
785;0.0045
788;0.0042
791;0.0029
794;0.0035
797;0.0033
800;0.0029