File: data/raw_data/uvvis/20171020_GrNH2_azodye/171020_60min.csv
171020_60min.csv;;Kemi1\Kemi01;20-10-2017 13:58:41;GENESYS 10S UV-Vis;2L9T161212;4.006
nm;A
200;2.9702
203;3.1053
206;3.1557
209;3.1202
212;3.0999
215;3.1008
218;3.1214
221;3.131
224;3.1553
227;3.2042
230;3.2275
233;3.1844
236;3.1811
239;3.1642
242;3.1896
245;3.1554
248;3.1666
251;3.1208
254;3.0853
257;3.091
260;3.0983
263;3.0374
266;3.0014
269;2.9728
272;2.9785
275;2.9557
278;2.9538
281;2.9587
284;2.9738
287;2.9941
290;2.9957
293;3.0075
296;3.0582
299;3.0962
302;2.9056
305;2.5889
308;2.4759
311;2.4845
314;2.5656
317;2.665
320;2.7648
323;2.8583
326;2.8924
329;2.882
332;2.8866
335;2.8838
338;2.8702
341;2.8572
344;2.8717
347;2.8372
350;2.8257
353;2.8169
356;2.8071
359;2.6909
362;2.4016
365;1.8746
368;1.4036
371;1.0067
374;0.7234
377;0.5406
380;0.4274
383;0.3518
386;0.3045
389;0.2748
392;0.2542
395;0.2389
398;0.2265
401;0.2162
404;0.208
407;0.2005
410;0.1938
413;0.1879
416;0.1822
419;0.1766
422;0.171
425;0.1664
428;0.1616
431;0.1568
434;0.1524
437;0.1484
440;0.1445
443;0.141
446;0.1375
449;0.1345
452;0.1317
455;0.1288
458;0.1258
461;0.1231
464;0.1206
467;0.1178
470;0.1151
473;0.1125
476;0.1099
479;0.1076
482;0.1048
485;0.1024
488;0.1
491;0.097
494;0.0941
497;0.091
500;0.0874
503;0.0835
506;0.0801
509;0.0772
512;0.0742
515;0.0712
518;0.0685
521;0.0659
524;0.0634
527;0.0606
530;0.0584
533;0.056
536;0.0534
539;0.0512
542;0.0493
545;0.0476
548;0.0451
551;0.0429
554;0.0409
557;0.0392
560;0.0371
563;0.0355
566;0.034
569;0.032
572;0.0307
575;0.0294
578;0.0279
581;0.0261
584;0.0257
587;0.0236
590;0.0228
593;0.022
596;0.0218
599;0.0202
602;0.0195
605;0.0187
608;0.0176
611;0.0168
614;0.0155
617;0.0154
620;0.0148
623;0.0138
626;0.0135
629;0.0132
632;0.0125
635;0.0123
638;0.0113
641;0.0109
644;0.0104
647;0.01
650;0.0101
653;0.0097
656;0.0091
659;0.0089
662;0.0087
665;0.0083
668;0.0087
671;0.008
674;0.0086
677;0.0076
680;0.008
683;0.0079
686;0.0084
689;0.0083
692;0.0076
695;0.0073
698;0.0067
701;0.0072
704;0.0063
707;0.0066
710;0.0063
713;0.0057
716;0.0061
719;0.0057
722;0.0056
725;0.0057
728;0.0056
731;0.0055
734;0.0049
737;0.005
740;0.0053
743;0.0052
746;0.0049
749;0.0039
752;0.005
755;0.0053
758;0.005
761;0.0049
764;0.0037
767;0.0045
770;0.0037
773;0.0039
776;0.004
779;0.0038
782;0.0039
785;0.003
788;0.0033
791;0.0038
794;0.0029
797;0.0033
800;0.0031