File: data/raw_data/uvvis/20171020_GrNH2_azodye/171020_100min.csv
171020_100min.csv;;Kemi1\Kemi01;20-10-2017 14:42:24;GENESYS 10S UV-Vis;2L9T161212;4.006
nm;A
200;2.9769
203;3.107
206;3.1547
209;3.1091
212;3.1089
215;3.0894
218;3.1021
221;3.1182
224;3.1602
227;3.198
230;3.2297
233;3.1928
236;3.182
239;3.166
242;3.1872
245;3.1569
248;3.1648
251;3.1221
254;3.082
257;3.0507
260;3.0727
263;3.0049
266;2.978
269;2.9512
272;2.9594
275;2.9272
278;2.9259
281;2.9276
284;2.9436
287;2.9619
290;2.9693
293;2.9802
296;3.0139
299;2.9925
302;2.5027
305;2.1411
308;2.0846
311;2.1748
314;2.3419
317;2.5177
320;2.6807
323;2.8168
326;2.8685
329;2.8778
332;2.897
335;2.8863
338;2.8764
341;2.8627
344;2.8848
347;2.8513
350;2.8358
353;2.8333
356;2.8178
359;2.7169
362;2.4464
365;1.9341
368;1.467
371;1.0721
374;0.7895
377;0.6079
380;0.4945
383;0.4188
386;0.3709
389;0.34
392;0.3177
395;0.3003
398;0.285
401;0.2728
404;0.2612
407;0.2511
410;0.241
413;0.2324
416;0.2236
419;0.2151
422;0.2068
425;0.1993
428;0.1919
431;0.1845
434;0.1778
437;0.171
440;0.165
443;0.1592
446;0.1538
449;0.149
452;0.1444
455;0.1401
458;0.1359
461;0.1323
464;0.1283
467;0.1248
470;0.1212
473;0.1179
476;0.1145
479;0.1112
482;0.1082
485;0.1053
488;0.1024
491;0.0989
494;0.0961
497;0.0926
500;0.089
503;0.0862
506;0.0825
509;0.0795
512;0.0764
515;0.073
518;0.0705
521;0.0678
524;0.0656
527;0.0632
530;0.0611
533;0.0587
536;0.0568
539;0.0551
542;0.053
545;0.0511
548;0.0496
551;0.0472
554;0.0462
557;0.0443
560;0.0429
563;0.0427
566;0.0404
569;0.039
572;0.0374
575;0.0363
578;0.0352
581;0.0343
584;0.0326
587;0.0326
590;0.0311
593;0.0298
596;0.0295
599;0.0291
602;0.0276
605;0.0272
608;0.0265
611;0.0256
614;0.025
617;0.024
620;0.0232
623;0.0223
626;0.022
629;0.022
632;0.0206
635;0.021
638;0.0199
641;0.0187
644;0.0182
647;0.0185
650;0.017
653;0.0173
656;0.0173
659;0.0167
662;0.0166
665;0.0163
668;0.0157
671;0.0167
674;0.0155
677;0.0155
680;0.0155
683;0.0158
686;0.015
689;0.0143
692;0.016
695;0.0143
698;0.0132
701;0.0138
704;0.0127
707;0.0125
710;0.0126
713;0.0127
716;0.0121
719;0.0124
722;0.0123
725;0.0112
728;0.0113
731;0.011
734;0.0111
737;0.0125
740;0.0111
743;0.0111
746;0.0105
749;0.0107
752;0.0108
755;0.0101
758;0.0099
761;0.0108
764;0.01
767;0.0096
770;0.0089
773;0.0081
776;0.0083
779;0.0087
782;0.0084
785;0.0083
788;0.0092
791;0.0085
794;0.0079
797;0.0076
800;0.0086