File: data/raw_data/uvvis/20171020_GrNH2_azodye/171020_80min.csv
171020_80min.csv;;Kemi1\Kemi01;20-10-2017 14:18:49;GENESYS 10S UV-Vis;2L9T161212;4.006
nm;A
200;2.958
203;3.0906
206;3.1438
209;3.1122
212;3.0988
215;3.0843
218;3.1125
221;3.1169
224;3.1467
227;3.2006
230;3.2291
233;3.1887
236;3.1811
239;3.1669
242;3.1926
245;3.1562
248;3.1691
251;3.114
254;3.0853
257;3.0525
260;3.07
263;3.0209
266;2.9756
269;2.9468
272;2.9529
275;2.9283
278;2.9294
281;2.9349
284;2.946
287;2.9874
290;2.9717
293;2.9807
296;3.022
299;3.0218
302;2.5994
305;2.2321
308;2.1615
311;2.2383
314;2.3979
317;2.5656
320;2.7173
323;2.8356
326;2.88
329;2.8808
332;2.8869
335;2.8734
338;2.8731
341;2.8556
344;2.8708
347;2.8403
350;2.8208
353;2.8247
356;2.8127
359;2.7239
362;2.4635
365;1.935
368;1.4504
371;1.0402
374;0.7479
377;0.5613
380;0.4463
383;0.3717
386;0.326
389;0.2975
392;0.2779
395;0.2632
398;0.2511
401;0.2411
404;0.2319
407;0.2244
410;0.2165
413;0.21
416;0.2029
419;0.1963
422;0.1896
425;0.1836
428;0.1775
431;0.1709
434;0.1657
437;0.1604
440;0.1556
443;0.1508
446;0.1466
449;0.1429
452;0.139
455;0.1354
458;0.1319
461;0.1289
464;0.1255
467;0.1229
470;0.1197
473;0.1171
476;0.1142
479;0.1113
482;0.109
485;0.1066
488;0.1043
491;0.1015
494;0.0988
497;0.0955
500;0.0921
503;0.0884
506;0.0853
509;0.0817
512;0.0786
515;0.0759
518;0.0729
521;0.0703
524;0.068
527;0.0653
530;0.063
533;0.0608
536;0.0585
539;0.0563
542;0.0543
545;0.0523
548;0.0502
551;0.0484
554;0.0473
557;0.0453
560;0.0428
563;0.0417
566;0.0399
569;0.0386
572;0.0373
575;0.0349
578;0.0337
581;0.0329
584;0.0311
587;0.0301
590;0.0292
593;0.0283
596;0.0272
599;0.0258
602;0.0246
605;0.0245
608;0.0235
611;0.0223
614;0.0214
617;0.0211
620;0.0206
623;0.0193
626;0.019
629;0.0186
632;0.0174
635;0.018
638;0.0157
641;0.0157
644;0.0154
647;0.0139
650;0.0139
653;0.014
656;0.0132
659;0.0135
662;0.0129
665;0.012
668;0.0121
671;0.0123
674;0.0124
677;0.0121
680;0.0119
683;0.0115
686;0.0111
689;0.0116
692;0.0111
695;0.0108
698;0.0103
701;0.0107
704;0.01
707;0.0095
710;0.0098
713;0.0091
716;0.0093
719;0.0089
722;0.0087
725;0.0088
728;0.0083
731;0.0091
734;0.0083
737;0.0084
740;0.0077
743;0.0085
746;0.0083
749;0.0069
752;0.0081
755;0.0079
758;0.0072
761;0.0069
764;0.0065
767;0.007
770;0.0073
773;0.0063
776;0.0058
779;0.0054
782;0.0069
785;0.0063
788;0.0055
791;0.0054
794;0.0049
797;0.0056
800;0.0063