File: data/raw_data/uvvis/20171020_GrNH2_azodye/171020_100min_New2Naphtoltest.csv
171020_100min_New2Naphtoltest.csv;;Kemi1\Kemi01;20-10-2017 14:46:27;GENESYS 10S UV-Vis;2L9T161212;4.006
nm;A
200;2.9704
203;3.1446
206;3.1553
209;3.1262
212;3.0947
215;3.0879
218;3.1012
221;3.117
224;3.1594
227;3.1848
230;3.2112
233;3.1722
236;3.1717
239;3.1512
242;3.1736
245;3.1476
248;3.1582
251;3.1127
254;3.0861
257;3.0586
260;3.0756
263;3.0081
266;2.9716
269;2.9442
272;2.9507
275;2.9216
278;2.9207
281;2.9263
284;2.9314
287;2.9764
290;2.9672
293;2.9659
296;3.0098
299;2.8384
302;2.2048
305;1.8891
308;1.8364
311;1.9011
314;2.0351
317;2.1947
320;2.3695
323;2.5488
326;2.6741
329;2.754
332;2.8151
335;2.8389
338;2.8446
341;2.8292
344;2.8499
347;2.8133
350;2.7908
353;2.7649
356;2.6931
359;2.4543
362;2.0748
365;1.6066
368;1.224
371;0.9103
374;0.6887
377;0.5454
380;0.4556
383;0.3939
386;0.354
389;0.3269
392;0.3064
395;0.2898
398;0.275
401;0.2626
404;0.2506
407;0.2407
410;0.2302
413;0.2217
416;0.213
419;0.2046
422;0.1966
425;0.1888
428;0.1819
431;0.1739
434;0.1678
437;0.1616
440;0.1551
443;0.15
446;0.1447
449;0.1403
452;0.1358
455;0.1319
458;0.1278
461;0.1243
464;0.1208
467;0.1175
470;0.1145
473;0.1114
476;0.1079
479;0.105
482;0.1018
485;0.0992
488;0.0961
491;0.0935
494;0.0908
497;0.0876
500;0.0847
503;0.0815
506;0.0789
509;0.0754
512;0.0724
515;0.0704
518;0.0677
521;0.0656
524;0.0629
527;0.0607
530;0.0589
533;0.0566
536;0.0546
539;0.0528
542;0.051
545;0.0498
548;0.0479
551;0.0464
554;0.0454
557;0.0443
560;0.0423
563;0.0406
566;0.04
569;0.0383
572;0.0364
575;0.0364
578;0.0348
581;0.0334
584;0.0322
587;0.0316
590;0.0312
593;0.0293
596;0.0292
599;0.0281
602;0.0283
605;0.0274
608;0.0269
611;0.0254
614;0.0256
617;0.0241
620;0.0228
623;0.0237
626;0.0217
629;0.0216
632;0.0213
635;0.0203
638;0.0196
641;0.0182
644;0.0191
647;0.0188
650;0.0188
653;0.0177
656;0.0175
659;0.0175
662;0.0167
665;0.0167
668;0.0166
671;0.0169
674;0.0165
677;0.0161
680;0.0157
683;0.0161
686;0.0162
689;0.0151
692;0.0155
695;0.0148
698;0.015
701;0.0148
704;0.0137
707;0.0142
710;0.0136
713;0.0131
716;0.0123
719;0.013
722;0.0128
725;0.0125
728;0.0124
731;0.0118
734;0.012
737;0.0117
740;0.0117
743;0.0116
746;0.0109
749;0.0114
752;0.011
755;0.0108
758;0.0107
761;0.0101
764;0.0101
767;0.0097
770;0.0092
773;0.0095
776;0.0082
779;0.0088
782;0.0093
785;0.0093
788;0.0094
791;0.0082
794;0.0083
797;0.0089
800;0.0096