File: data/raw_data/uvvis/20171020_GrNH2_azodye/171020_40min.csv
171020_40min.csv;;Kemi1\Kemi01;20-10-2017 13:38:17;GENESYS 10S UV-Vis;2L9T161212;4.006
nm;A
200;2.973
203;3.1144
206;3.1701
209;3.1359
212;3.1201
215;3.1184
218;3.1433
221;3.1503
224;3.1803
227;3.2194
230;3.2492
233;3.2034
236;3.1984
239;3.1774
242;3.2077
245;3.1647
248;3.1905
251;3.1422
254;3.1311
257;3.0954
260;3.131
263;3.0772
266;3.0426
269;3.0182
272;3.0267
275;3.0016
278;3.0028
281;3.0068
284;3.0267
287;3.0519
290;3.0538
293;3.0703
296;3.1288
299;3.2043
302;3.2472
305;3.1425
308;3.0536
311;2.9999
314;2.9802
317;2.9668
320;2.9699
323;2.9859
326;2.966
329;2.9278
332;2.9274
335;2.9081
338;2.8997
341;2.8762
344;2.8916
347;2.8588
350;2.8382
353;2.8358
356;2.8284
359;2.7293
362;2.4602
365;1.9227
368;1.4314
371;1.0145
374;0.7176
377;0.5272
380;0.4099
383;0.3334
386;0.2867
389;0.2584
392;0.2395
395;0.2268
398;0.2169
401;0.2097
404;0.2033
407;0.1982
410;0.1936
413;0.1895
416;0.1855
419;0.1815
422;0.178
425;0.1742
428;0.1711
431;0.1676
434;0.1645
437;0.1618
440;0.1588
443;0.1561
446;0.1538
449;0.1516
452;0.1494
455;0.147
458;0.1444
461;0.1421
464;0.1394
467;0.1369
470;0.1348
473;0.1324
476;0.1302
479;0.1274
482;0.1257
485;0.124
488;0.1224
491;0.12
494;0.1175
497;0.1135
500;0.1088
503;0.104
506;0.0995
509;0.0948
512;0.0904
515;0.0864
518;0.0825
521;0.079
524;0.0757
527;0.0725
530;0.0695
533;0.0663
536;0.0635
539;0.0607
542;0.0579
545;0.0556
548;0.0527
551;0.0504
554;0.0477
557;0.046
560;0.0433
563;0.041
566;0.0391
569;0.0372
572;0.0344
575;0.0333
578;0.0317
581;0.0297
584;0.0281
587;0.0274
590;0.0257
593;0.0247
596;0.0226
599;0.0222
602;0.0212
605;0.0204
608;0.0189
611;0.0186
614;0.0168
617;0.0167
620;0.0162
623;0.0148
626;0.0143
629;0.0135
632;0.0124
635;0.0126
638;0.0119
641;0.0107
644;0.0113
647;0.0102
650;0.0098
653;0.0096
656;0.009
659;0.0103
662;0.009
665;0.0086
668;0.009
671;0.0086
674;0.0085
677;0.0078
680;0.0072
683;0.0082
686;0.0082
689;0.008
692;0.0081
695;0.0075
698;0.0075
701;0.0067
704;0.0055
707;0.006
710;0.0062
713;0.0055
716;0.0051
719;0.0053
722;0.0067
725;0.0068
728;0.005
731;0.0056
734;0.0054
737;0.0068
740;0.0062
743;0.0057
746;0.0045
749;0.0041
752;0.0046
755;0.0045
758;0.0044
761;0.0049
764;0.0039
767;0.0038
770;0.0031
773;0.0031
776;0.003
779;0.0032
782;0.0022
785;0.0029
788;0.003
791;0.0031
794;0.0033
797;0.003
800;0.0023