File: data/derived_data/raman/20170920_Gr-NH2_for_Radisurf/20170920 Gr-NH for Radisurf map 1_1691__X_19.5__Y_-16__Time_181.txt
3396.06	0.492913
3387.29	1.423728
3378.5	15.9981
3369.71	0.976476
3360.92	4.164760
3352.1	-0.593982
3343.29	-3.073026
3334.46	9.172750
3325.62	7.823841
3316.77	3.091724
3307.91	-0.499175
3299.04	15.0794
3290.16	4.733426
3281.27	0.035396
3272.37	-3.526486
3263.46	-1.468243
3254.54	0.587757
3245.61	4.880332
3236.67	16.9927
3227.72	14.5605
3218.76	21.0611
3209.79	14.177
3200.81	12.8764
3191.82	3.798206
3182.82	20.2863
3173.81	7.897057
3164.79	6.618879
3155.76	14.2004
3146.72	9.606105
3137.67	13.8589
3128.6	23.6195
3119.53	-1.896406
3110.45	-2.039950
3101.36	8.811829
3092.25	16.3472
3083.14	12.9002
3074.01	0.699614
3064.88	11.5083
3055.73	15.7367
3046.58	16.6825
3037.41	2.361934
3028.23	12.0395
3019.05	19.5213
3009.85	13.9476
3000.64	14.9019
2991.42	14.7722
2982.19	21.1429
2972.95	21.011
2963.7	32.7668
2954.44	25.0719
2945.16	38.9566
2935.88	36.6606
2926.59	31.1458
2917.28	31.0172
2907.97	34.1102
2898.64	36.1266
2889.3	32.7882
2879.95	29.4598
2870.59	24.0055
2861.22	21.7665
2851.84	20.6006
2842.45	13.0541
2833.05	23.599
2823.63	22.4419
2814.21	11.7451
2804.77	34.9732
2795.33	19.001
2785.87	27.3754
2776.4	26.2323
2766.92	17.7138
2757.43	32.3858
2747.92	37.5589
2738.41	47.9753
2728.88	54.1718
2719.35	81.319
2709.8	87.4661
2700.24	76.8699
2690.67	72.5675
2681.09	80.796
2671.5	60.8739
2661.89	51.4085
2652.28	41.9677
2642.65	39.8194
2633.01	27.308
2623.36	15.8644
2613.7	25.1419
2604.03	18.8993
2594.34	21.9629
2584.65	17.8053
2574.94	26.0157
2565.22	9.526391
2555.49	16.7044
2545.75	12.5818
2535.99	20.7683
2526.23	20.7492
2516.45	3.353339
2506.66	4.380728
2496.86	14.5865
2487.05	9.490677
2477.22	6.444106
2467.39	8.487958
2457.54	6.469301
2447.68	3.443996
2437.81	-2.609342
2427.92	8.546035
2418.03	2.505559
2408.12	-2.509304
2398.2	6.596929
2388.27	14.6769
2378.32	10.6773
2368.37	2.673566
2358.4	2.713459
2348.42	1.753865
2338.43	7.800975
2328.42	-4.148284
2318.41	-0.100194
2308.38	7.926877
2298.34	4.986504
2288.28	-8.881227
2278.22	2.112659
2268.14	2.171868
2258.05	0.251810
2247.95	-4.629606
2237.83	0.384761
2227.7	3.414979
2217.56	-2.431969
2207.41	-11.2161
2197.25	-4.243298
2187.07	-0.231936
2176.88	0.828826
2166.68	1.888979
2156.46	-8.793419
2146.23	-3.810845
2135.99	-5.671143
2125.74	-3.625331
2115.47	2.312079
2105.2	1.429465
2094.91	9.292357
2084.6	-1.293424
2074.29	-2.162503
2063.96	1.810770
2053.61	-4.854894
2043.26	11.6639
2032.89	-2.706119
2022.51	-7.409988
2012.12	2.324400
2001.71	3.392335
1991.29	-0.336781
1980.86	-5.012804
1970.41	2.763687
1959.95	-3.812236
1949.48	8.719075
1938.99	5.968714
1928.49	-2.485382
1917.98	0.493819
1907.46	-6.029383
1896.92	3.589533
1886.37	4.660422
1875.8	-1.838356
1865.22	2.074717
1854.63	3.148411
1844.03	7.991069
1833.41	3.410002
1822.78	6.363023
1812.13	3.676620
1801.47	1.936290
1790.8	1.138512
1780.11	11.5685
1769.41	5.158549
1758.7	0.632316
1747.97	11.0277
1737.23	14.8839
1726.48	5.719870
1715.71	10.504
1704.93	-4.190504
1694.13	7.077926
1683.32	9.072152
1672.5	10.1392
1661.66	18.5831
1650.81	20.5589
1639.95	45.5293
1629.07	73.1928
1618.18	123.726
1607.27	155.801
1596.35	190.541
1585.41	259.011
1574.46	302.657
1563.5	157.477
1552.52	113.737
1541.53	81.9317
1530.52	75.637
1519.5	58.4761
1508.47	47.7011
1497.42	49.6192
1486.35	55.147
1475.28	49.8342
1464.18	41.833
1453.08	55.4507
1441.95	48.3634
1430.82	52.0657
1419.67	62.0336
1408.5	80.9281
1397.32	86.3634
1386.13	91.7851
1374.92	120.377
1363.69	179.17
1352.46	199.569
1341.2	190.604
1329.93	172.794
1318.65	122.255
1307.35	84.2343
1296.04	94.9063
1284.71	72.9047
1273.37	46.5559
1262.01	47.5565
1250.63	36.2515
1239.25	27.6097
1227.84	32.1384
1216.42	19.1491
1204.99	25.4259
1193.54	16.8456
1182.08	29.212
1170.6	15.426
1159.1	22.5448
1147.59	10.5415
1136.06	13.3122
1124.52	21.2717
1112.97	10.1833
1101.39	10.3527
1089.8	8.796545
1078.2	7.244572
1066.58	12.5783
1054.95	4.153012
1043.3	0.039714
1031.63	-1.492444
1019.95	4.679491
1008.25	11.6889
996.535	12.7064
984.807	16.2771
973.061	13.0303
961.299	23.3883
949.52	23.5344
937.727	16.0523
925.916	11.1291
914.09	-1.387630
902.248	-6.274729
890.391	-5.249091
878.516	-8.435289
866.625	0.154201
854.717	-5.550116
842.793	-2.857133
830.854	0.664784
818.896	-0.839372
806.924	-2.340244
800.932	1.081579