File: data/raw_data/uvvis/20180110_GrNH2_azodye/20170110_0min.csv
20170110_0min.csv;;Kemi1\Kemi01;10-01-2018 17:33:00;GENESYS 10S UV-Vis;2L9T161212;4.006
nm;A
200;3.4755
203;3.6506
206;3.7394
209;3.7327
212;3.8201
215;3.7564
218;3.866
221;3.9039
224;4.0853
227;4.254
230;4.3888
233;4.1958
236;4.1879
239;4.143
242;4.3032
245;4.1368
248;4.3885
251;4.1447
254;4.0151
257;4.062
260;4.1025
263;4.0075
266;4.0209
269;4.0054
272;4.248
275;4.0063
278;4.0149
281;4.0224
284;4.0177
287;4.2688
290;4.0817
293;4.1231
296;4.1802
299;4.0885
302;3.5762
305;3.1512
308;3.0633
311;3.1751
314;3.3944
317;3.5896
320;3.7684
323;3.9156
326;3.9301
329;3.8732
332;3.8944
335;3.8464
338;3.8984
341;3.8166
344;3.9024
347;3.8306
350;3.7818
353;3.814
356;3.838
359;3.779
362;3.5382
365;2.8876
368;2.3184
371;1.8485
374;1.5248
377;1.3331
380;1.2334
383;1.1937
386;1.1998
389;1.2354
392;1.2899
395;1.3566
398;1.4346
401;1.5095
404;1.5861
407;1.6586
410;1.7283
413;1.789
416;1.8433
419;1.8891
422;1.9216
425;1.944
428;1.9553
431;1.9582
434;1.9546
437;1.9429
440;1.9274
443;1.9052
446;1.8808
449;1.8552
452;1.8288
455;1.803
458;1.781
461;1.764
464;1.7513
467;1.7453
470;1.7466
473;1.7543
476;1.7669
479;1.7835
482;1.8034
485;1.82
488;1.8394
491;1.8555
494;1.8646
497;1.8717
500;1.8729
503;1.8674
506;1.856
509;1.8367
512;1.8117
515;1.7789
518;1.7395
521;1.6952
524;1.6413
527;1.584
530;1.5251
533;1.4532
536;1.3813
539;1.3076
542;1.2303
545;1.1502
548;1.0683
551;0.9879
554;0.9087
557;0.8284
560;0.7522
563;0.679
566;0.6077
569;0.5401
572;0.4795
575;0.4242
578;0.3739
581;0.3265
584;0.2851
587;0.2475
590;0.2149
593;0.1853
596;0.1598
599;0.1392
602;0.1193
605;0.1026
608;0.0884
611;0.077
614;0.0665
617;0.0582
620;0.0506
623;0.0445
626;0.0392
629;0.035
632;0.0314
635;0.0281
638;0.0258
641;0.0228
644;0.021
647;0.0195
650;0.0184
653;0.0178
656;0.016
659;0.0156
662;0.0145
665;0.0139
668;0.0128
671;0.0121
674;0.0118
677;0.0116
680;0.0108
683;0.0105
686;0.0098
689;0.0099
692;0.0099
695;0.0092
698;0.0087
701;0.0082
704;0.0083
707;0.0083
710;0.0084
713;0.0085
716;0.0075
719;0.0075
722;0.007
725;0.0074
728;0.007
731;0.007
734;0.007
737;0.0065
740;0.0066
743;0.0072
746;0.0066
749;0.0062
752;0.0065
755;0.0059
758;0.0067
761;0.006
764;0.0059
767;0.0049
770;0.0052
773;0.0056
776;0.0057
779;0.0045
782;0.0058
785;0.006
788;0.0045
791;0.0049
794;0.0052
797;0.0049
800;0.0056