File: data/raw_data/uvvis/20180110_GrNH2_azodye/20180110_30min.csv
20180110_30min.csv;;Kemi1\Kemi01;10-01-2018 17:39:13;GENESYS 10S UV-Vis;2L9T161212;4.006
nm;A
200;3.2464
203;3.3985
206;3.4836
209;3.4879
212;3.5065
215;3.4852
218;3.5381
221;3.55
224;3.6172
227;3.6402
230;3.7611
233;3.6583
236;3.6521
239;3.6253
242;3.6822
245;3.6158
248;3.6813
251;3.5733
254;3.5679
257;3.5026
260;3.5083
263;3.4446
266;3.4575
269;3.417
272;3.3919
275;3.3979
278;3.4093
281;3.4074
284;3.4235
287;3.4275
290;3.4576
293;3.4571
296;3.5011
299;3.4588
302;2.9111
305;2.4623
308;2.4045
311;2.5464
314;2.7997
317;3.0515
320;3.2566
323;3.3725
326;3.3969
329;3.3827
332;3.3895
335;3.3673
338;3.3554
341;3.3447
344;3.372
347;3.3289
350;3.3021
353;3.3227
356;3.3216
359;3.2604
362;3.0594
365;2.4784
368;1.9028
371;1.4121
374;1.0686
377;0.8546
380;0.7313
383;0.6602
386;0.63
389;0.6249
392;0.634
395;0.6525
398;0.678
401;0.7041
404;0.731
407;0.7576
410;0.7836
413;0.8057
416;0.8258
419;0.8421
422;0.8536
425;0.8612
428;0.8651
431;0.8652
434;0.8627
437;0.8579
440;0.8507
443;0.8418
446;0.8314
449;0.8209
452;0.8102
455;0.7993
458;0.7899
461;0.7826
464;0.7769
467;0.7738
470;0.7737
473;0.776
476;0.7804
479;0.7861
482;0.7927
485;0.7984
488;0.8052
491;0.8104
494;0.8138
497;0.8154
500;0.8145
503;0.8106
506;0.8043
509;0.7956
512;0.7836
515;0.7688
518;0.751
521;0.7319
524;0.7081
527;0.6828
530;0.6571
533;0.6265
536;0.5957
539;0.5643
542;0.5318
545;0.4976
548;0.4635
551;0.4301
554;0.3965
557;0.3632
560;0.3312
563;0.3001
566;0.2711
569;0.243
572;0.2167
575;0.1935
578;0.1724
581;0.1526
584;0.1354
587;0.119
590;0.1052
593;0.0928
596;0.082
599;0.0727
602;0.0634
605;0.0566
608;0.0508
611;0.0451
614;0.0406
617;0.0365
620;0.033
623;0.0302
626;0.0274
629;0.0252
632;0.0232
635;0.0216
638;0.0202
641;0.0184
644;0.0177
647;0.0166
650;0.016
653;0.015
656;0.0145
659;0.014
662;0.0128
665;0.0125
668;0.0119
671;0.0114
674;0.011
677;0.0107
680;0.0101
683;0.0102
686;0.0101
689;0.0089
692;0.0087
695;0.0088
698;0.0083
701;0.0079
704;0.0077
707;0.008
710;0.0071
713;0.0075
716;0.007
719;0.0072
722;0.0064
725;0.0068
728;0.0066
731;0.0065
734;0.0068
737;0.006
740;0.0064
743;0.0061
746;0.0054
749;0.0061
752;0.0059
755;0.0058
758;0.0063
761;0.0059
764;0.0057
767;0.0046
770;0.0053
773;0.0053
776;0.0053
779;0.0051
782;0.005
785;0.0046
788;0.0058
791;0.0048
794;0.0042
797;0.0048
800;0.0051