File: data/raw_data/uvvis/20180110_GrNH2_azodye/20180110_60min.csv
20180110_60min.csv;;Kemi1\Kemi01;10-01-2018 17:43:51;GENESYS 10S UV-Vis;2L9T161212;4.006
nm;A
200;3.2111
203;3.3707
206;3.435
209;3.43
212;3.3962
215;3.3907
218;3.4083
221;3.4469
224;3.5106
227;3.5724
230;3.6243
233;3.5596
236;3.5503
239;3.5341
242;3.5698
245;3.5055
248;3.5408
251;3.4797
254;3.4239
257;3.4134
260;3.4044
263;3.3327
266;3.3389
269;3.2862
272;3.3139
275;3.2783
278;3.2788
281;3.3032
284;3.311
287;3.3801
290;3.3487
293;3.347
296;3.3859
299;3.34
302;2.7681
305;2.3251
308;2.2786
311;2.4261
314;2.6804
317;2.93
320;3.1262
323;3.2498
326;3.2716
329;3.24
332;3.2603
335;3.2405
338;3.2324
341;3.221
344;3.237
347;3.2071
350;3.2039
353;3.1983
356;3.2038
359;3.1409
362;2.9598
365;2.3912
368;1.8239
371;1.341
374;1.0023
377;0.7903
380;0.6671
383;0.5943
386;0.5599
389;0.5493
392;0.552
395;0.5632
398;0.5803
401;0.5986
404;0.6181
407;0.6372
410;0.6557
413;0.6721
416;0.6863
419;0.6979
422;0.7056
425;0.7106
428;0.7131
431;0.7122
434;0.7099
437;0.7057
440;0.7
443;0.6928
446;0.6845
449;0.6763
452;0.6682
455;0.6594
458;0.6519
461;0.6465
464;0.6415
467;0.6397
470;0.639
473;0.6404
476;0.6436
479;0.6479
482;0.6524
485;0.6565
488;0.661
491;0.6647
494;0.6667
497;0.6676
500;0.6659
503;0.6626
506;0.6573
509;0.6495
512;0.639
515;0.6268
518;0.6124
521;0.5964
524;0.5774
527;0.5568
530;0.5363
533;0.511
536;0.4868
539;0.4618
542;0.4356
545;0.4088
548;0.3817
551;0.3549
554;0.3284
557;0.302
560;0.2771
563;0.2528
566;0.229
569;0.2068
572;0.1869
575;0.1685
578;0.152
581;0.1361
584;0.1229
587;0.1105
590;0.0992
593;0.0894
596;0.0804
599;0.0732
602;0.0664
605;0.0605
608;0.0558
611;0.0509
614;0.0474
617;0.0438
620;0.0411
623;0.0391
626;0.0358
629;0.0345
632;0.0325
635;0.0317
638;0.0307
641;0.0281
644;0.0277
647;0.0267
650;0.0247
653;0.0248
656;0.0244
659;0.0237
662;0.0237
665;0.0238
668;0.0228
671;0.0219
674;0.0219
677;0.0208
680;0.0208
683;0.021
686;0.0206
689;0.0202
692;0.0202
695;0.0198
698;0.0197
701;0.0194
704;0.0194
707;0.0177
710;0.018
713;0.0174
716;0.0173
719;0.0172
722;0.0167
725;0.0168
728;0.0172
731;0.0171
734;0.0166
737;0.0163
740;0.0169
743;0.0155
746;0.0153
749;0.0153
752;0.0159
755;0.0148
758;0.0153
761;0.0155
764;0.0155
767;0.015
770;0.0146
773;0.0142
776;0.0143
779;0.0147
782;0.0145
785;0.0141
788;0.0125
791;0.0129
794;0.0134
797;0.0122
800;0.0139