File: data/raw_data/uvvis/20180119_GrNH2_azodye/20180119_2_A_0min.csv
20180119_2_A_0min.csv;;Kemi1\Kemi01;20-01-2018 15:57:06;GENESYS 10S UV-Vis;2L9T161212;4.006
nm;A
400;0.9551
402;0.982
404;1.01
406;1.0365
408;1.0636
410;1.089
412;1.1114
414;1.1333
416;1.153
418;1.1707
420;1.1861
422;1.1975
424;1.2071
426;1.2138
428;1.218
430;1.2201
432;1.2202
434;1.2185
436;1.215
438;1.2099
440;1.2034
442;1.1959
444;1.1868
446;1.1775
448;1.168
450;1.1579
452;1.1477
454;1.1377
456;1.1284
458;1.1204
460;1.1132
462;1.1072
464;1.1031
466;1.1003
468;1.0993
470;1.0999
472;1.1027
474;1.106
476;1.1114
478;1.1173
480;1.1243
482;1.1314
484;1.1376
486;1.145
488;1.1511
490;1.1567
492;1.1615
494;1.1651
496;1.1675
498;1.1684
500;1.1674
502;1.1649
504;1.1611
506;1.1553
508;1.1477
510;1.1384
512;1.1268
514;1.1142
516;1.0991
518;1.0829
520;1.0654
522;1.0452
524;1.0231
526;1.0002
528;0.9758
530;0.953
532;0.9248
534;0.8966
536;0.8669
538;0.8383
540;0.8058
542;0.776
544;0.7441
546;0.7107
548;0.6782
550;0.646
552;0.6136
554;0.5822
556;0.5501
558;0.5185
560;0.4878
562;0.4582
564;0.4282
566;0.4009
568;0.3737
570;0.3479
572;0.324
574;0.3012
576;0.2801
578;0.2605
580;0.2412
582;0.2234
584;0.207
586;0.1914
588;0.1781
590;0.1642
592;0.1525
594;0.1415
596;0.1308
598;0.1222
600;0.114
602;0.1067
604;0.0992
606;0.0928
608;0.0873
610;0.0826
612;0.0782
614;0.0735
616;0.0703
618;0.0667
620;0.0635
622;0.061
624;0.0583
626;0.0563
628;0.0541
630;0.0528
632;0.0506
634;0.0497
636;0.0482
638;0.047
640;0.0458
642;0.0452
644;0.0438
646;0.0434
648;0.0426
650;0.0424
652;0.0413
654;0.0406
656;0.0402
658;0.0398
660;0.0389
662;0.0386
664;0.0381
666;0.0377
668;0.0372
670;0.0368
672;0.0362
674;0.0362
676;0.0356
678;0.0357
680;0.0351
682;0.0346
684;0.0348
686;0.0341
688;0.0337
690;0.0336
692;0.0336
694;0.0326
696;0.0328
698;0.0323
700;0.0322