File: data/raw_data/uvvis/20180119_GrNH2_azodye/20180119_1_A_60min.csv
20180119_1_A_60min.csv;;Kemi1\Kemi01;20-01-2018 15:45:44;GENESYS 10S UV-Vis;2L9T161212;4.006
nm;A
400;0.6444
402;0.6523
404;0.6612
406;0.6702
408;0.6797
410;0.6885
412;0.697
414;0.7053
416;0.7132
418;0.7205
420;0.7274
422;0.7328
424;0.7378
426;0.7418
428;0.7451
430;0.7477
432;0.7492
434;0.7499
436;0.7499
438;0.7494
440;0.748
442;0.7464
444;0.7442
446;0.7413
448;0.7384
450;0.7355
452;0.7324
454;0.7292
456;0.7262
458;0.7236
460;0.7211
462;0.7192
464;0.7182
466;0.7178
468;0.7176
470;0.7183
472;0.7195
474;0.7212
476;0.7233
478;0.7257
480;0.7281
482;0.7305
484;0.7326
486;0.7351
488;0.7365
490;0.7383
492;0.739
494;0.7389
496;0.7382
498;0.7365
500;0.7344
502;0.7311
504;0.7267
506;0.7216
508;0.7151
510;0.7081
512;0.6998
514;0.6907
516;0.6805
518;0.6694
520;0.6585
522;0.6455
524;0.6319
526;0.618
528;0.6033
530;0.5896
532;0.573
534;0.5567
536;0.5392
538;0.5227
540;0.5042
542;0.4868
544;0.4686
546;0.4491
548;0.4307
550;0.4121
552;0.3933
554;0.3753
556;0.3566
558;0.3392
560;0.3214
562;0.3046
564;0.2873
566;0.2713
568;0.2562
570;0.2418
572;0.2281
574;0.2157
576;0.2031
578;0.1917
580;0.1809
582;0.1704
584;0.161
586;0.1518
588;0.1432
590;0.1353
592;0.1281
594;0.1214
596;0.1146
598;0.1093
600;0.1033
602;0.0984
604;0.0934
606;0.0893
608;0.085
610;0.0812
612;0.0778
614;0.0745
616;0.0715
618;0.0691
620;0.066
622;0.0632
624;0.0612
626;0.0592
628;0.0577
630;0.0547
632;0.0538
634;0.0521
636;0.0507
638;0.0494
640;0.0478
642;0.0464
644;0.0447
646;0.0446
648;0.0429
650;0.0418
652;0.0415
654;0.0404
656;0.0396
658;0.0389
660;0.0384
662;0.0377
664;0.0374
666;0.0363
668;0.0352
670;0.0349
672;0.0337
674;0.0337
676;0.0326
678;0.032
680;0.032
682;0.0317
684;0.0309
686;0.0303
688;0.0304
690;0.0298
692;0.0295
694;0.0291
696;0.0282
698;0.0277
700;0.0283