File: data/raw_data/uvvis/20180119_GrNH2_azodye/20180119_2_B_60min.csv
20180119_2_B_60min.csv;;Kemi1\Kemi01;20-01-2018 16:01:12;GENESYS 10S UV-Vis;2L9T161212;4.006
nm;A
400;0.1894
402;0.1901
404;0.1912
406;0.1925
408;0.1937
410;0.1948
412;0.1962
414;0.1973
416;0.1982
418;0.1992
420;0.1998
422;0.2004
424;0.2007
426;0.2012
428;0.2015
430;0.2014
432;0.2015
434;0.201
436;0.2008
438;0.2002
440;0.1997
442;0.1988
444;0.1978
446;0.1966
448;0.1955
450;0.1942
452;0.193
454;0.1914
456;0.1897
458;0.1881
460;0.1863
462;0.1845
464;0.1831
466;0.1813
468;0.1794
470;0.1779
472;0.1763
474;0.1748
476;0.1729
478;0.1713
480;0.1697
482;0.1678
484;0.1662
486;0.1649
488;0.1631
490;0.1612
492;0.1595
494;0.1579
496;0.1558
498;0.1536
500;0.1514
502;0.1492
504;0.1467
506;0.1444
508;0.1414
510;0.139
512;0.1362
514;0.1336
516;0.1305
518;0.1274
520;0.1243
522;0.1212
524;0.1174
526;0.1141
528;0.1107
530;0.1076
532;0.1042
534;0.1006
536;0.0968
538;0.0938
540;0.09
542;0.0864
544;0.0829
546;0.0791
548;0.0756
550;0.0717
552;0.0685
554;0.0647
556;0.0619
558;0.0585
560;0.0553
562;0.0524
564;0.049
566;0.0465
568;0.0438
570;0.0411
572;0.0385
574;0.0362
576;0.0341
578;0.0321
580;0.03
582;0.0279
584;0.0262
586;0.0247
588;0.0233
590;0.0218
592;0.0204
594;0.0195
596;0.0183
598;0.0171
600;0.0163
602;0.0151
604;0.0146
606;0.0134
608;0.013
610;0.0126
612;0.0119
614;0.0113
616;0.0108
618;0.0102
620;0.0104
622;0.0097
624;0.0097
626;0.0091
628;0.0091
630;0.0085
632;0.0084
634;0.0082
636;0.008
638;0.008
640;0.0082
642;0.0082
644;0.0069
646;0.0076
648;0.007
650;0.0072
652;0.0068
654;0.0066
656;0.0069
658;0.0069
660;0.0064
662;0.0059
664;0.0061
666;0.0061
668;0.006
670;0.0064
672;0.0063
674;0.0064
676;0.0062
678;0.0064
680;0.0065
682;0.0057
684;0.0058
686;0.0056
688;0.0058
690;0.0052
692;0.0055
694;0.0055
696;0.0054
698;0.0041
700;0.0046