File: data/raw_data/uvvis/20180119_GrNH2_azodye/20180119_1_B_60min.csv
20180119_1_B_60min.csv;;Kemi1\Kemi01;20-01-2018 15:57:03;GENESYS 10S UV-Vis;2L9T161212;4.006
nm;A
400;0.4171
402;0.4152
404;0.4135
406;0.4124
408;0.4113
410;0.4103
412;0.4097
414;0.4089
416;0.4083
418;0.4079
420;0.4071
422;0.4067
424;0.4064
426;0.4061
428;0.4057
430;0.4052
432;0.4047
434;0.404
436;0.4032
438;0.4022
440;0.4008
442;0.3992
444;0.3975
446;0.3956
448;0.393
450;0.3906
452;0.3876
454;0.3843
456;0.3809
458;0.3774
460;0.3733
462;0.3693
464;0.365
466;0.36
468;0.355
470;0.3499
472;0.345
474;0.3395
476;0.334
478;0.328
480;0.3225
482;0.3164
484;0.3108
486;0.3048
488;0.2988
490;0.2922
492;0.2865
494;0.2805
496;0.2739
498;0.2682
500;0.2615
502;0.255
504;0.2492
506;0.2428
508;0.2364
510;0.2302
512;0.2241
514;0.218
516;0.2116
518;0.2057
520;0.1999
522;0.194
524;0.188
526;0.1822
528;0.1761
530;0.1713
532;0.1658
534;0.1601
536;0.155
538;0.1503
540;0.1447
542;0.1399
544;0.1351
546;0.1301
548;0.1253
550;0.1213
552;0.1167
554;0.1126
556;0.1088
558;0.1044
560;0.1007
562;0.0971
564;0.0929
566;0.0898
568;0.0865
570;0.0833
572;0.0806
574;0.0776
576;0.0748
578;0.0727
580;0.07
582;0.0678
584;0.0655
586;0.0635
588;0.0619
590;0.0598
592;0.058
594;0.0561
596;0.0548
598;0.053
600;0.0519
602;0.0508
604;0.0491
606;0.0476
608;0.0468
610;0.0457
612;0.0451
614;0.0433
616;0.0429
618;0.0421
620;0.041
622;0.0401
624;0.0393
626;0.0391
628;0.0385
630;0.0378
632;0.037
634;0.0369
636;0.0364
638;0.0353
640;0.0351
642;0.0354
644;0.0343
646;0.0339
648;0.0336
650;0.034
652;0.0328
654;0.0325
656;0.0324
658;0.0324
660;0.0319
662;0.032
664;0.0316
666;0.0311
668;0.0309
670;0.0306
672;0.031
674;0.0305
676;0.0297
678;0.0298
680;0.0294
682;0.0287
684;0.0288
686;0.0283
688;0.0282
690;0.0276
692;0.0279
694;0.0272
696;0.0272
698;0.0265
700;0.0265