File: data/raw_data/uvvis/20180119_GrNH2_azodye/20180119_2_B_0min.csv
20180119_2_B_0min.csv;;Kemi1\Kemi01;20-01-2018 15:57:16;GENESYS 10S UV-Vis;2L9T161212;4.006
nm;A
400;0.5461
402;0.5516
404;0.5574
406;0.5638
408;0.5701
410;0.576
412;0.5817
414;0.5869
416;0.5918
418;0.5961
420;0.5996
422;0.6026
424;0.6053
426;0.6073
428;0.6089
430;0.6101
432;0.6107
434;0.6107
436;0.6103
438;0.6095
440;0.6084
442;0.6069
444;0.6051
446;0.6033
448;0.601
450;0.5985
452;0.596
454;0.5935
456;0.5911
458;0.5892
460;0.5871
462;0.5855
464;0.5843
466;0.5836
468;0.5831
470;0.5831
472;0.5837
474;0.5844
476;0.5857
478;0.5869
480;0.5885
482;0.59
484;0.591
486;0.5923
488;0.5928
490;0.5933
492;0.5934
494;0.5931
496;0.5919
498;0.5905
500;0.5875
502;0.5843
504;0.5806
506;0.5763
508;0.5709
510;0.565
512;0.5584
514;0.5511
516;0.543
518;0.5351
520;0.5261
522;0.5165
524;0.5059
526;0.4954
528;0.4838
530;0.4735
532;0.4611
534;0.4484
536;0.4352
538;0.4226
540;0.4083
542;0.3949
544;0.3808
546;0.3661
548;0.3515
550;0.3375
552;0.3231
554;0.309
556;0.2949
558;0.2812
560;0.2673
562;0.2547
564;0.2413
566;0.2297
568;0.218
570;0.2068
572;0.1966
574;0.1865
576;0.1774
578;0.1689
580;0.1606
582;0.1526
584;0.1455
586;0.1388
588;0.1326
590;0.1266
592;0.1208
594;0.1159
596;0.1111
598;0.1066
600;0.1028
602;0.0993
604;0.0953
606;0.0922
608;0.0896
610;0.0868
612;0.0847
614;0.0817
616;0.0797
618;0.0778
620;0.0759
622;0.0741
624;0.0724
626;0.0716
628;0.0697
630;0.0686
632;0.0676
634;0.0664
636;0.0657
638;0.0645
640;0.0631
642;0.0626
644;0.0617
646;0.0607
648;0.06
650;0.0598
652;0.0588
654;0.0579
656;0.0577
658;0.0569
660;0.0562
662;0.0557
664;0.0554
666;0.0547
668;0.0544
670;0.054
672;0.0534
674;0.0531
676;0.0524
678;0.0518
680;0.0518
682;0.0504
684;0.0499
686;0.0487
688;0.0484
690;0.0477
692;0.0476
694;0.0471
696;0.0465
698;0.0456
700;0.0448