File: data/raw_data/uvvis/20180119_GrNH2_azodye/20180119_1_A_30min.csv
20180119_1_A_30min.csv;;Kemi1\Kemi01;20-01-2018 15:45:37;GENESYS 10S UV-Vis;2L9T161212;4.006
nm;A
400;0.9812
402;1.0063
404;1.0328
406;1.0579
408;1.0842
410;1.1087
412;1.131
414;1.1528
416;1.1729
418;1.1913
420;1.2075
422;1.22
424;1.2308
426;1.2391
428;1.2449
430;1.2487
432;1.2501
434;1.2499
436;1.2476
438;1.2438
440;1.2385
442;1.2323
444;1.2244
446;1.216
448;1.2077
450;1.199
452;1.1901
454;1.1812
456;1.1728
458;1.1653
460;1.1592
462;1.1537
464;1.1502
466;1.1479
468;1.1474
470;1.1484
472;1.1508
474;1.155
476;1.1602
478;1.1662
480;1.1731
482;1.1802
484;1.1865
486;1.1939
488;1.1997
490;1.2059
492;1.2104
494;1.2137
496;1.216
498;1.2166
500;1.2161
502;1.2134
504;1.2089
506;1.2031
508;1.1948
510;1.1852
512;1.1735
514;1.1602
516;1.1449
518;1.1279
520;1.11
522;1.089
524;1.0669
526;1.0432
528;1.0182
530;0.9949
532;0.9663
534;0.9376
536;0.9073
538;0.8782
540;0.8449
542;0.8146
544;0.7821
546;0.7472
548;0.7146
550;0.6815
552;0.6478
554;0.6155
556;0.5823
558;0.5507
560;0.5189
562;0.4886
564;0.4577
566;0.429
568;0.4015
570;0.375
572;0.35
574;0.3271
576;0.3046
578;0.2839
580;0.2644
582;0.2454
584;0.2287
586;0.2124
588;0.1976
590;0.1836
592;0.1712
594;0.159
596;0.1482
598;0.1391
600;0.1296
602;0.1211
604;0.1132
606;0.1068
608;0.0999
610;0.0943
612;0.0894
614;0.0846
616;0.0797
618;0.0764
620;0.072
622;0.0685
624;0.0658
626;0.063
628;0.0603
630;0.0577
632;0.0559
634;0.054
636;0.0524
638;0.0505
640;0.0486
642;0.0475
644;0.0456
646;0.0451
648;0.0436
650;0.0422
652;0.0413
654;0.0408
656;0.0391
658;0.0381
660;0.0378
662;0.0369
664;0.0363
666;0.0359
668;0.0357
670;0.0352
672;0.0344
674;0.0343
676;0.033
678;0.0323
680;0.0321
682;0.0315
684;0.0305
686;0.0303
688;0.0303
690;0.0296
692;0.0291
694;0.0289
696;0.0278
698;0.0277
700;0.027