File: data/raw_data/uvvis/20180119_GrNH2_azodye/20180119_2_A_30min.csv
20180119_2_A_30min.csv;;Kemi1\Kemi01;20-01-2018 15:57:10;GENESYS 10S UV-Vis;2L9T161212;4.006
nm;A
400;0.5858
402;0.5957
404;0.6062
406;0.6169
408;0.6278
410;0.6378
412;0.647
414;0.6558
416;0.664
418;0.6713
420;0.6775
422;0.6822
424;0.6862
426;0.6892
428;0.691
430;0.6917
432;0.6919
434;0.6912
436;0.6896
438;0.6874
440;0.6846
442;0.6811
444;0.6772
446;0.673
448;0.6687
450;0.6641
452;0.6593
454;0.6547
456;0.6504
458;0.6466
460;0.6431
462;0.6402
464;0.6379
466;0.6366
468;0.6357
470;0.6358
472;0.6365
474;0.6381
476;0.6401
478;0.6424
480;0.6454
482;0.6481
484;0.6507
486;0.6535
488;0.6556
490;0.6577
492;0.6593
494;0.6603
496;0.6607
498;0.6603
500;0.6587
502;0.6565
504;0.6536
506;0.6499
508;0.645
510;0.6394
512;0.6326
514;0.6252
516;0.617
518;0.6082
520;0.5985
522;0.5875
524;0.5757
526;0.5637
528;0.5503
530;0.5386
532;0.5237
534;0.5087
536;0.4934
538;0.4781
540;0.4609
542;0.4454
544;0.4284
546;0.4107
548;0.3936
550;0.3769
552;0.3595
554;0.3429
556;0.326
558;0.3093
560;0.2931
562;0.2774
564;0.2618
566;0.2472
568;0.233
570;0.2192
572;0.2065
574;0.1947
576;0.1831
578;0.1729
580;0.1625
582;0.1529
584;0.1439
586;0.1358
588;0.1284
590;0.1207
592;0.1141
594;0.108
596;0.1021
598;0.0971
600;0.0926
602;0.0881
604;0.084
606;0.0805
608;0.0769
610;0.0742
612;0.0715
614;0.0684
616;0.0659
618;0.0639
620;0.0622
622;0.0602
624;0.058
626;0.057
628;0.0552
630;0.0538
632;0.0528
634;0.0519
636;0.0509
638;0.0502
640;0.0487
642;0.0483
644;0.0469
646;0.0463
648;0.0454
650;0.0454
652;0.0444
654;0.0434
656;0.0429
658;0.0426
660;0.0418
662;0.0413
664;0.0414
666;0.0404
668;0.0397
670;0.0393
672;0.039
674;0.0387
676;0.0378
678;0.038
680;0.0375
682;0.037
684;0.0368
686;0.0365
688;0.0357
690;0.0358
692;0.0356
694;0.0354
696;0.0352
698;0.035
700;0.0345