File: data/raw_data/uvvis/20180119_GrNH2_azodye/20180119_1_A_0min.csv
20180119_1_A_0min.csv;;Kemi1\Kemi01;20-01-2018 15:45:25;GENESYS 10S UV-Vis;2L9T161212;4.006
nm;A
400;1.1161
402;1.1487
404;1.1827
406;1.2146
408;1.2474
410;1.2777
412;1.3049
414;1.3317
416;1.356
418;1.3776
420;1.3975
422;1.412
424;1.4246
426;1.4337
428;1.4401
430;1.4436
432;1.4445
434;1.4436
436;1.4401
438;1.4349
440;1.4277
442;1.4197
444;1.4094
446;1.3988
448;1.3882
450;1.3769
452;1.3658
454;1.3544
456;1.3438
458;1.3345
460;1.3264
462;1.3193
464;1.3148
466;1.3119
468;1.3106
470;1.3116
472;1.3142
474;1.3187
476;1.3247
478;1.3318
480;1.3396
482;1.3481
484;1.355
486;1.3635
488;1.3702
490;1.3776
492;1.3829
494;1.3868
496;1.39
498;1.3904
500;1.3902
502;1.387
504;1.3818
506;1.3753
508;1.3659
510;1.3551
512;1.3416
514;1.3264
516;1.3089
518;1.2894
520;1.2696
522;1.2456
524;1.2202
526;1.1937
528;1.1654
530;1.1389
532;1.1061
534;1.0736
536;1.0393
538;1.0059
540;0.9679
542;0.9329
544;0.8955
546;0.8555
548;0.8177
550;0.7795
552;0.7407
554;0.7031
556;0.6643
558;0.6274
560;0.5902
562;0.5548
564;0.5188
566;0.4853
568;0.4532
570;0.4225
572;0.3933
574;0.3663
576;0.3406
578;0.3166
580;0.2937
582;0.2722
584;0.2528
586;0.2338
588;0.2169
590;0.2009
592;0.1864
594;0.1729
596;0.1604
598;0.1502
600;0.139
602;0.13
604;0.1209
606;0.1137
608;0.1064
610;0.1
612;0.0944
614;0.0891
616;0.0845
618;0.0804
620;0.0758
622;0.0723
624;0.0695
626;0.0664
628;0.0637
630;0.0608
632;0.0594
634;0.0577
636;0.0556
638;0.0538
640;0.0521
642;0.0508
644;0.0494
646;0.0488
648;0.0468
650;0.0459
652;0.0456
654;0.0452
656;0.0438
658;0.0432
660;0.0428
662;0.042
664;0.0416
666;0.0407
668;0.0398
670;0.0394
672;0.0391
674;0.0384
676;0.0377
678;0.0369
680;0.0368
682;0.0367
684;0.036
686;0.036
688;0.0358
690;0.0353
692;0.035
694;0.0345
696;0.0342
698;0.0337
700;0.0335