File: data/raw_data/uvvis/20180119_GrNH2_azodye/20180119_1_B_30min.csv
20180119_1_B_30min.csv;;Kemi1\Kemi01;20-01-2018 15:45:55;GENESYS 10S UV-Vis;2L9T161212;4.006
nm;A
400;0.3733
402;0.3718
404;0.3711
406;0.3705
408;0.3703
410;0.3699
412;0.3699
414;0.3698
416;0.3699
418;0.3703
420;0.3704
422;0.3708
424;0.3713
426;0.3717
428;0.3722
430;0.3725
432;0.3726
434;0.3726
436;0.3724
438;0.3719
440;0.371
442;0.3701
444;0.3689
446;0.367
448;0.3652
450;0.363
452;0.3608
454;0.3582
456;0.355
458;0.352
460;0.3486
462;0.345
464;0.3416
466;0.3377
468;0.3342
470;0.3301
472;0.326
474;0.3223
476;0.318
478;0.3138
480;0.3093
482;0.3049
484;0.3006
486;0.2962
488;0.2917
490;0.2872
492;0.2826
494;0.2779
496;0.2729
498;0.2679
500;0.2631
502;0.2579
504;0.2524
506;0.2474
508;0.2417
510;0.2363
512;0.2307
514;0.2255
516;0.2196
518;0.2137
520;0.2087
522;0.2024
524;0.1965
526;0.1912
528;0.1851
530;0.1801
532;0.1744
534;0.1685
536;0.1631
538;0.1578
540;0.1521
542;0.1468
544;0.1415
546;0.1355
548;0.1306
550;0.1257
552;0.1206
554;0.1154
556;0.1107
558;0.1064
560;0.102
562;0.0977
564;0.093
566;0.089
568;0.0849
570;0.0813
572;0.078
574;0.0745
576;0.0712
578;0.0682
580;0.0657
582;0.0629
584;0.0601
586;0.0577
588;0.0555
590;0.0534
592;0.0516
594;0.0497
596;0.0474
598;0.0459
600;0.0443
602;0.0425
604;0.0408
606;0.0396
608;0.0385
610;0.0369
612;0.036
614;0.0351
616;0.0338
618;0.0331
620;0.032
622;0.0307
624;0.0305
626;0.0295
628;0.0291
630;0.0279
632;0.0278
634;0.0271
636;0.0263
638;0.0265
640;0.0257
642;0.025
644;0.0249
646;0.0246
648;0.0237
650;0.0233
652;0.0233
654;0.0232
656;0.0232
658;0.0226
660;0.0223
662;0.022
664;0.0222
666;0.0216
668;0.0214
670;0.0213
672;0.0208
674;0.0207
676;0.0207
678;0.0201
680;0.0203
682;0.0204
684;0.0198
686;0.0201
688;0.0201
690;0.019
692;0.0194
694;0.0192
696;0.019
698;0.0182
700;0.0183