File: data/raw_data/uvvis/20180119_GrNH2_azodye/20180119_2_A_60min.csv
20180119_2_A_60min.csv;;Kemi1\Kemi01;20-01-2018 15:57:13;GENESYS 10S UV-Vis;2L9T161212;4.006
nm;A
400;0.5194
402;0.5284
404;0.538
406;0.5475
408;0.5573
410;0.5665
412;0.5748
414;0.5829
416;0.5902
418;0.5969
420;0.602
422;0.6062
424;0.6096
426;0.6121
428;0.6137
430;0.6142
432;0.614
434;0.6132
436;0.6118
438;0.6097
440;0.6069
442;0.6038
444;0.6001
446;0.5964
448;0.5923
450;0.588
452;0.5836
454;0.5794
456;0.5754
458;0.5719
460;0.5684
462;0.5657
464;0.5635
466;0.5621
468;0.5608
470;0.5608
472;0.5614
474;0.5623
476;0.5637
478;0.5654
480;0.5679
482;0.57
484;0.5717
486;0.5742
488;0.5757
490;0.5773
492;0.5785
494;0.5792
496;0.5791
498;0.5785
500;0.5771
502;0.5748
504;0.572
506;0.5684
508;0.5639
510;0.5587
512;0.5526
514;0.5459
516;0.5381
518;0.5301
520;0.5215
522;0.5114
524;0.5005
526;0.4898
528;0.4776
530;0.4669
532;0.4535
534;0.4401
536;0.4261
538;0.4127
540;0.3973
542;0.3831
544;0.3683
546;0.3527
548;0.3372
550;0.3224
552;0.307
554;0.2923
556;0.2772
558;0.2626
560;0.2484
562;0.2341
564;0.2203
566;0.2078
568;0.195
570;0.183
572;0.1717
574;0.1607
576;0.1512
578;0.1419
580;0.1327
582;0.1241
584;0.1161
586;0.1091
588;0.1023
590;0.0957
592;0.0899
594;0.0846
596;0.0793
598;0.075
600;0.0707
602;0.0668
604;0.0631
606;0.0599
608;0.0571
610;0.0547
612;0.0523
614;0.049
616;0.0477
618;0.0455
620;0.0437
622;0.0423
624;0.0406
626;0.0394
628;0.0378
630;0.0367
632;0.0359
634;0.0349
636;0.0343
638;0.0334
640;0.0321
642;0.0321
644;0.0308
646;0.0301
648;0.0296
650;0.0293
652;0.0285
654;0.0278
656;0.0275
658;0.0271
660;0.0264
662;0.0261
664;0.0259
666;0.0248
668;0.0243
670;0.0242
672;0.0237
674;0.0239
676;0.0227
678;0.023
680;0.0226
682;0.0222
684;0.022
686;0.0213
688;0.0212
690;0.0212
692;0.021
694;0.0206
696;0.0205
698;0.0204
700;0.02