File: data/raw_data/uvvis/20180119_GrNH2_azodye/20180119_1_B_0min.csv
20180119_1_B_0min.csv;;Kemi1\Kemi01;20-01-2018 15:45:49;GENESYS 10S UV-Vis;2L9T161212;4.006
nm;A
400;0.8341
402;0.8396
404;0.8461
406;0.8525
408;0.8599
410;0.8672
412;0.8745
414;0.882
416;0.8895
418;0.8964
420;0.9029
422;0.9084
424;0.9136
426;0.9181
428;0.922
430;0.9253
432;0.9278
434;0.9297
436;0.931
438;0.932
440;0.9323
442;0.9321
444;0.9317
446;0.9307
448;0.9296
450;0.9285
452;0.9271
454;0.9257
456;0.9246
458;0.9236
460;0.923
462;0.9224
464;0.9227
466;0.9236
468;0.9247
470;0.9265
472;0.9285
474;0.9311
476;0.9341
478;0.9371
480;0.9398
482;0.943
484;0.945
486;0.9475
488;0.9487
490;0.95
492;0.9501
494;0.9491
496;0.9473
498;0.944
500;0.94
502;0.9344
504;0.9279
506;0.9202
508;0.9107
510;0.9006
512;0.8892
514;0.8764
516;0.8624
518;0.848
520;0.8331
522;0.8157
524;0.798
526;0.7801
528;0.7611
530;0.7431
532;0.7221
534;0.7008
536;0.679
538;0.6578
540;0.6339
542;0.6114
544;0.5881
546;0.5627
548;0.5388
550;0.5145
552;0.4903
554;0.4663
556;0.4422
558;0.4196
560;0.3969
562;0.3757
564;0.3543
566;0.3346
568;0.3162
570;0.2983
572;0.282
574;0.2665
576;0.252
578;0.2383
580;0.2256
582;0.2134
584;0.2021
586;0.1912
588;0.1813
590;0.1722
592;0.1636
594;0.1556
596;0.1478
598;0.1413
600;0.1343
602;0.1286
604;0.1225
606;0.1176
608;0.1122
610;0.1075
612;0.1034
614;0.0994
616;0.0956
618;0.0925
620;0.0885
622;0.0853
624;0.0828
626;0.08
628;0.0775
630;0.0749
632;0.0731
634;0.0709
636;0.0688
638;0.0673
640;0.0651
642;0.0634
644;0.0617
646;0.0612
648;0.0587
650;0.0577
652;0.0568
654;0.0558
656;0.0546
658;0.053
660;0.0525
662;0.0517
664;0.051
666;0.0491
668;0.0487
670;0.0486
672;0.0469
674;0.0465
676;0.0457
678;0.0448
680;0.0445
682;0.044
684;0.043
686;0.0427
688;0.0421
690;0.0413
692;0.0408
694;0.0403
696;0.0397
698;0.0388
700;0.0386