File: data/raw_data/ir/20170922_ATR-IR_Gr-NH2/Administrator 1001_148.csv
Created as New Dataset;Sample 1001 By Administrator Date fredag, september 22 2017
cm-1;%T
4000,00;85,57
3988,00;85,54
3976,00;85,49
3964,00;85,46
3952,00;85,32
3940,00;85,37
3928,00;85,22
3916,00;85,29
3904,00;84,32
3892,00;84,88
3880,00;84,96
3868,00;84,44
3856,00;83,69
3844,00;84,75
3832,00;84,78
3820,00;84,11
3808,00;84,61
3796,00;84,92
3784,00;85,03
3772,00;84,88
3760,00;84,66
3748,00;83,41
3736,00;83,52
3724,00;84,65
3712,00;84,05
3700,00;85,01
3688,00;84,21
3676,00;83,56
3664,00;85,39
3652,00;83,97
3640,00;85,13
3628,00;84,26
3616,00;84,34
3604,00;84,95
3592,00;84,72
3580,00;85,04
3568,00;84,21
3556,00;84,95
3544,00;84,80
3532,00;84,89
3520,00;84,88
3508,00;84,82
3496,00;84,91
3484,00;84,84
3472,00;84,90
3460,00;84,85
3448,00;84,74
3436,00;84,85
3424,00;84,78
3412,00;84,78
3400,00;84,72
3388,00;84,70
3376,00;84,68
3364,00;84,62
3352,00;84,62
3340,00;84,60
3328,00;84,56
3316,00;84,55
3304,00;84,53
3292,00;84,49
3280,00;84,47
3268,00;84,47
3256,00;84,43
3244,00;84,41
3232,00;84,40
3220,00;84,35
3208,00;84,35
3196,00;84,29
3184,00;84,27
3172,00;84,25
3160,00;84,20
3148,00;84,16
3136,00;84,13
3124,00;84,06
3112,00;84,05
3100,00;84,01
3088,00;84,02
3076,00;83,97
3064,00;83,91
3052,00;83,93
3040,00;83,89
3028,00;83,85
3016,00;83,86
3004,00;83,81
2992,00;83,73
2980,00;83,66
2968,00;83,63
2956,00;83,72
2944,00;83,68
2932,00;83,85
2920,00;84,00
2908,00;83,71
2896,00;83,59
2884,00;83,49
2872,00;83,44
2860,00;83,55
2848,00;83,60
2836,00;83,42
2824,00;83,36
2812,00;83,31
2800,00;83,29
2788,00;83,25
2776,00;83,22
2764,00;83,20
2752,00;83,18
2740,00;83,15
2728,00;83,14
2716,00;83,12
2704,00;83,09
2692,00;83,07
2680,00;83,05
2668,00;83,02
2656,00;82,90
2644,00;82,91
2632,00;82,94
2620,00;83,00
2608,00;83,04
2596,00;83,06
2584,00;83,08
2572,00;83,11
2560,00;83,11
2548,00;83,13
2536,00;83,12
2524,00;83,10
2512,00;83,13
2500,00;83,10
2488,00;83,07
2476,00;83,07
2464,00;83,03
2452,00;82,97
2440,00;82,99
2428,00;83,01
2416,00;83,01
2404,00;83,02
2392,00;82,98
2380,00;82,93
2368,00;82,93
2356,00;83,30
2344,00;82,48
2332,00;83,06
2320,00;82,84
2308,00;82,71
2296,00;82,53
2284,00;82,42
2272,00;82,56
2260,00;82,59
2248,00;82,68
2236,00;82,62
2224,00;82,63
2212,00;82,61
2200,00;82,54
2188,00;82,40
2176,00;82,66
2164,00;82,28
2152,00;83,26
2140,00;82,99
2128,00;82,93
2116,00;82,60
2104,00;82,53
2092,00;82,59
2080,00;82,35
2068,00;82,38
2056,00;82,29
2044,00;82,36
2032,00;82,43
2020,00;82,52
2008,00;82,63
1996,00;82,51
1984,00;82,19
1972,00;82,60
1960,00;82,66
1948,00;82,54
1936,00;82,46
1924,00;82,39
1912,00;82,27
1900,00;82,25
1888,00;82,14
1876,00;82,12
1864,00;82,08
1852,00;82,00
1840,00;81,99
1828,00;81,87
1816,00;81,90
1804,00;81,67
1792,00;81,61
1780,00;81,49
1768,00;81,46
1756,00;81,27
1744,00;81,08
1732,00;80,81
1720,00;80,81
1708,00;80,87
1696,00;81,02
1684,00;80,86
1672,00;80,87
1660,00;80,79
1648,00;80,67
1636,00;80,58
1624,00;80,47
1612,00;80,42
1600,00;80,53
1588,00;80,63
1576,00;80,42
1564,00;80,20
1552,00;80,02
1540,00;79,96
1528,00;79,86
1516,00;79,79
1504,00;79,76
1492,00;79,89
1480,00;79,75
1468,00;79,68
1456,00;79,52
1444,00;79,51
1432,00;79,42
1420,00;79,32
1408,00;79,17
1396,00;79,22
1384,00;79,11
1372,00;79,07
1360,00;79,03
1348,00;78,94
1336,00;78,90
1324,00;78,84
1312,00;78,82
1300,00;78,75
1288,00;78,74
1276,00;78,73
1264,00;78,69
1252,00;78,55
1240,00;78,41
1228,00;78,28
1216,00;78,22
1204,00;78,15
1192,00;78,04
1180,00;77,92
1168,00;77,81
1156,00;77,69
1144,00;77,60
1132,00;77,48
1120,00;77,38
1108,00;77,28
1096,00;77,15
1084,00;77,04
1072,00;77,00
1060,00;76,94
1048,00;76,99
1036,00;76,96
1024,00;76,89
1012,00;76,88
1000,00;76,85
988,00;76,82
976,00;76,78
964,00;76,74
952,00;76,72
940,00;76,66
928,00;76,61
916,00;76,53
904,00;76,44
892,00;76,32
880,00;76,21
868,00;76,09
856,00;76,01
844,00;75,88
832,00;75,77
820,00;75,79
808,00;75,63
796,00;75,52
784,00;75,39
772,00;75,31
760,00;75,22
748,00;75,15
736,00;75,05
724,00;74,93
712,00;74,88
700,00;74,78
688,00;74,65
676,00;74,52
664,00;74,45
652,00;74,37
640,00;74,29
628,00;74,21
616,00;74,14
604,00;74,08
592,00;74,02
580,00;73,97
568,00;73,72
556,00;73,63
544,00;73,45
532,00;73,36
520,00;72,97
508,00;72,84
496,00;72,71
484,00;72,44
472,00;72,45
460,00;71,99
450,00;72,18