File: data/derived_data/raman/20170920_Gr-NH2_for_Radisurf/20170920 Gr-NH for Radisurf map 2/2D FWHM.txt
#XList		#YList		#IList
-39.3414	-21.065	118.484
-30.3414	-21.065	163.299
-21.3414	-21.065	178.777
-12.3414	-21.065	162.781
-3.341423	-21.065	68.3979
5.658577	-21.065	77.89
14.6586	-21.065	161.269
23.6586	-21.065	1520.27
-32.3414	-20.065	128.578
-23.3414	-20.065	129.318
-14.3414	-20.065	149.597
-5.341423	-20.065	108.169
3.658577	-20.065	84.6469
12.6586	-20.065	146.074
21.6586	-20.065	186.364
-34.3414	-19.065	90.5688
-25.3414	-19.065	150.422
-16.3414	-19.065	165.921
-7.341423	-19.065	124.921
1.658577	-19.065	94.6158
10.6586	-19.065	99.2475
19.6586	-19.065	146.687
-36.3414	-18.065	116.681
-27.3414	-18.065	153.761
-18.3414	-18.065	173.77
-9.341423	-18.065	125.733
-0.341423	-18.065	122.586
8.658577	-18.065	149.864
17.6586	-18.065	135.993
-38.3414	-17.065	153.67
-29.3414	-17.065	142.889
-20.3414	-17.065	183.014
-11.3414	-17.065	157.515
-2.341423	-17.065	126.162
6.658577	-17.065	141.832
15.6586	-17.065	167.576
24.6586	-17.065	187.721
-31.3414	-16.065	161.136
-22.3414	-16.065	158.934
-13.3414	-16.065	149.446
-4.341423	-16.065	137.344
4.658577	-16.065	89.974
13.6586	-16.065	193.427
22.6586	-16.065	178.587
-33.3414	-15.065	136.353
-24.3414	-15.065	154.873
-15.3414	-15.065	149.682
-6.341423	-15.065	126.485
2.658577	-15.065	138.821
11.6586	-15.065	174.945
20.6586	-15.065	161.624
-35.3414	-14.065	160.799
-26.3414	-14.065	173.24
-17.3414	-14.065	166.485
-8.341423	-14.065	110.63
0.658577	-14.065	144.197
9.658577	-14.065	165.768
18.6586	-14.065	124.367
-37.3414	-13.065	176.292
-28.3414	-13.065	157.72
-19.3414	-13.065	127.77
-10.3414	-13.065	119.005
-1.341423	-13.065	127.626
7.658577	-13.065	179.7
16.6586	-13.065	198.053
-39.3414	-12.065	152.254
-30.3414	-12.065	164.098
-21.3414	-12.065	90.7856
-12.3414	-12.065	124.123
-3.341423	-12.065	131.53
5.658577	-12.065	99.2369
14.6586	-12.065	140.149
23.6586	-12.065	134.824
-32.3414	-11.065	165.345
-23.3414	-11.065	147.026
-14.3414	-11.065	165.31
-5.341423	-11.065	134.994
3.658577	-11.065	85.4546
12.6586	-11.065	121.434
21.6586	-11.065	74.6364
-34.3414	-10.065	155.209
-25.3414	-10.065	167.628
-16.3414	-10.065	119.631
-7.341423	-10.065	89.0344
1.658577	-10.065	141.651
10.6586	-10.065	1902.27
19.6586	-10.065	82.7303
-36.3414	-9.065000	161.744
-27.3414	-9.065000	168.198
-18.3414	-9.065000	114.465
-9.341423	-9.065000	177.885
-0.341423	-9.065000	141.958
8.658577	-9.065000	172.873
17.6586	-9.065000	116.631
-38.3414	-8.065000	164.562
-29.3414	-8.065000	155.046
-20.3414	-8.065000	91.868
-11.3414	-8.065000	163.551
-2.341423	-8.065000	83.978
6.658577	-8.065000	176.499
15.6586	-8.065000	163.147
24.6586	-8.065000	161.227
-31.3414	-7.065000	177.681
-22.3414	-7.065000	112.211
-13.3414	-7.065000	151.945
-4.341423	-7.065000	75.869
4.658577	-7.065000	145.167
13.6586	-7.065000	185.198
22.6586	-7.065000	106.64
-33.3414	-6.065000	168.06
-24.3414	-6.065000	158.467
-15.3414	-6.065000	168.628
-6.341423	-6.065000	191.785
2.658577	-6.065000	162.689
11.6586	-6.065000	160.848
20.6586	-6.065000	80.8287
-35.3414	-5.065000	164.359
-26.3414	-5.065000	161.477
-17.3414	-5.065000	41.4148
-8.341423	-5.065000	171.144
0.658577	-5.065000	170.156
9.658577	-5.065000	145.498
18.6586	-5.065000	96.3772
-37.3414	-4.065000	127.588
-28.3414	-4.065000	172.188
-19.3414	-4.065000	196.396
-10.3414	-4.065000	137.914
-1.341423	-4.065000	155.027
7.658577	-4.065000	186.195
16.6586	-4.065000	190.319
-39.3414	-3.065000	1781.74
-30.3414	-3.065000	158.892
-21.3414	-3.065000	158.405
-12.3414	-3.065000	134.946
-3.341423	-3.065000	149.54
5.658577	-3.065000	103.708
14.6586	-3.065000	194.176
23.6586	-3.065000	93.6173
-32.3414	-2.065000	121.297
-23.3414	-2.065000	138.597
-14.3414	-2.065000	181.623
-5.341423	-2.065000	128.142
3.658577	-2.065000	167.383
12.6586	-2.065000	139.876
21.6586	-2.065000	98.6946
-34.3414	-1.065000	81.2331
-25.3414	-1.065000	158.335
-16.3414	-1.065000	103.911
-7.341423	-1.065000	131.254
1.658577	-1.065000	174.332
10.6586	-1.065000	119.541
19.6586	-1.065000	121.906
-36.3414	-0.065000	60.921
-27.3414	-0.065000	14.4802
-18.3414	-0.065000	162.003
-9.341423	-0.065000	128.23
-0.341423	-0.065000	150.325
8.658577	-0.065000	174.873
17.6586	-0.065000	142.446
-38.3414	0.935000	51.2819
-29.3414	0.935000	88.1755
-20.3414	0.935000	199.41
-11.3414	0.935000	137.811
-2.341423	0.935000	174.782
6.658577	0.935000	129.448
15.6586	0.935000	161.528
24.6586	0.935000	98.5081
-31.3414	1.935000	145.203
-22.3414	1.935000	150.936
-13.3414	1.935000	178.972
-4.341423	1.935000	148.811
4.658577	1.935000	125.839
13.6586	1.935000	142.056
22.6586	1.935000	164.389
-33.3414	2.935000	131.784
-24.3414	2.935000	112.592
-15.3414	2.935000	334.489
-6.341423	2.935000	156.813
2.658577	2.935000	137.181
11.6586	2.935000	129.983
20.6586	2.935000	170.877
-35.3414	3.935000	148.654
-26.3414	3.935000	163.177
-17.3414	3.935000	170.038
-8.341423	3.935000	116.016
0.658577	3.935000	178.808
9.658577	3.935000	162.392
18.6586	3.935000	144.552
-37.3414	4.935000	145.12
-28.3414	4.935000	170.25
-19.3414	4.935000	150.289
-10.3414	4.935000	129.791
-1.341423	4.935000	139.247
7.658577	4.935000	149.586
16.6586	4.935000	171.471
-39.3414	5.935000	174.436
-30.3414	5.935000	133.736
-21.3414	5.935000	147.088
-12.3414	5.935000	139.342
-3.341423	5.935000	171.851
5.658577	5.935000	146.321
14.6586	5.935000	154.407
23.6586	5.935000	166.045
-32.3414	6.935000	163.645
-23.3414	6.935000	141.397
-14.3414	6.935000	158.383
-5.341423	6.935000	157.439
3.658577	6.935000	134.439
12.6586	6.935000	160.623
21.6586	6.935000	179.864
-34.3414	7.935000	163.995
-25.3414	7.935000	145.952
-16.3414	7.935000	173.78
-7.341423	7.935000	160.504
1.658577	7.935000	186.396
10.6586	7.935000	146.397
19.6586	7.935000	156.346
-36.3414	8.935000	158.776
-27.3414	8.935000	158.244
-18.3414	8.935000	160.809
-9.341423	8.935000	129.27
-0.341423	8.935000	144.537
8.658577	8.935000	91.3454
17.6586	8.935000	172.211
-38.3414	9.935000	167.932
-29.3414	9.935000	152.647
-20.3414	9.935000	142.182
-11.3414	9.935000	130.78
-2.341423	9.935000	167.669
6.658577	9.935000	78.3776
15.6586	9.935000	235.968
24.6586	9.935000	71.7099
-31.3414	10.935	167.878
-22.3414	10.935	150.709
-13.3414	10.935	192.577
-4.341423	10.935	171.358
4.658577	10.935	81.9875
13.6586	10.935	112.086
22.6586	10.935	177.593
-33.3414	11.935	157.692
-24.3414	11.935	185.558
-15.3414	11.935	166.014
-6.341423	11.935	177.921
2.658577	11.935	137.854
11.6586	11.935	143.14
20.6586	11.935	146.092
-35.3414	12.935	160.191
-26.3414	12.935	124.084
-17.3414	12.935	127.666
-8.341423	12.935	98.3873
0.658577	12.935	147.418
9.658577	12.935	170.359
18.6586	12.935	2351.9
-37.3414	13.935	172.486
-28.3414	13.935	150.04
-19.3414	13.935	138.906
-10.3414	13.935	168.929
-1.341423	13.935	129.456
7.658577	13.935	157.577
16.6586	13.935	1763.03
-39.3414	14.935	127.096
-30.3414	14.935	160.605
-21.3414	14.935	166.712
-12.3414	14.935	158.693
-3.341423	14.935	180.384
5.658577	14.935	199.391
14.6586	14.935	183.829
23.6586	14.935	2094.1
-32.3414	15.935	176.435
-23.3414	15.935	116.006
-14.3414	15.935	135.652
-5.341423	15.935	84.048
3.658577	15.935	157.823
12.6586	15.935	184.083
21.6586	15.935	2105.58
24.6586	15.935	2126.43