File: data/derived_data/raman/20170920_Gr-NH2_for_Radisurf/20170920 Gr-NH for Radisurf map 2/2D int.txt
#XList		#YList		#IList
-39.3414	-21.065	99.4546
-30.3414	-21.065	263.94
-21.3414	-21.065	71.2533
-12.3414	-21.065	273.614
-3.341423	-21.065	17.8692
5.658577	-21.065	151.922
14.6586	-21.065	159.918
23.6586	-21.065	1.181255
-32.3414	-20.065	237.433
-23.3414	-20.065	54.3585
-14.3414	-20.065	286.381
-5.341423	-20.065	213.692
3.658577	-20.065	124.106
12.6586	-20.065	163.024
21.6586	-20.065	91.6095
-34.3414	-19.065	17.8513
-25.3414	-19.065	184.421
-16.3414	-19.065	353.456
-7.341423	-19.065	213.823
1.658577	-19.065	105.357
10.6586	-19.065	175.621
19.6586	-19.065	217.175
-36.3414	-18.065	130.669
-27.3414	-18.065	186.436
-18.3414	-18.065	107.343
-9.341423	-18.065	232.354
-0.341423	-18.065	137.281
8.658577	-18.065	235.136
17.6586	-18.065	177.647
-38.3414	-17.065	221.206
-29.3414	-17.065	182.29
-20.3414	-17.065	43.9094
-11.3414	-17.065	198.234
-2.341423	-17.065	122.179
6.658577	-17.065	145.067
15.6586	-17.065	230.119
24.6586	-17.065	157.709
-31.3414	-16.065	194.78
-22.3414	-16.065	177.264
-13.3414	-16.065	295.041
-4.341423	-16.065	185.454
4.658577	-16.065	130.445
13.6586	-16.065	27.1976
22.6586	-16.065	94.1888
-33.3414	-15.065	284.703
-24.3414	-15.065	198.689
-15.3414	-15.065	296.9
-6.341423	-15.065	140.327
2.658577	-15.065	88.8146
11.6586	-15.065	204.249
20.6586	-15.065	35.7276
-35.3414	-14.065	303.53
-26.3414	-14.065	198.385
-17.3414	-14.065	65.4155
-8.341423	-14.065	98.363
0.658577	-14.065	181.522
9.658577	-14.065	233.766
18.6586	-14.065	42.5202
-37.3414	-13.065	322.744
-28.3414	-13.065	191.476
-19.3414	-13.065	113.589
-10.3414	-13.065	140.484
-1.341423	-13.065	114.968
7.658577	-13.065	237.57
16.6586	-13.065	48.0683
-39.3414	-12.065	265.096
-30.3414	-12.065	275.082
-21.3414	-12.065	112.735
-12.3414	-12.065	171.645
-3.341423	-12.065	135.431
5.658577	-12.065	141.472
14.6586	-12.065	124.248
23.6586	-12.065	201.318
-32.3414	-11.065	257.517
-23.3414	-11.065	183.915
-14.3414	-11.065	53.0935
-5.341423	-11.065	81.6634
3.658577	-11.065	88.6727
12.6586	-11.065	13.9094
21.6586	-11.065	172.056
-34.3414	-10.065	269.849
-25.3414	-10.065	184.621
-16.3414	-10.065	153.487
-7.341423	-10.065	61.8958
1.658577	-10.065	177.24
10.6586	-10.065	1.658671
19.6586	-10.065	178.965
-36.3414	-9.065000	288.529
-27.3414	-9.065000	318.835
-18.3414	-9.065000	97.443
-9.341423	-9.065000	82.9456
-0.341423	-9.065000	143.612
8.658577	-9.065000	5.332705
17.6586	-9.065000	196.428
-38.3414	-8.065000	240.679
-29.3414	-8.065000	268.294
-20.3414	-8.065000	148.505
-11.3414	-8.065000	223.248
-2.341423	-8.065000	41.6252
6.658577	-8.065000	159.956
15.6586	-8.065000	92.8447
24.6586	-8.065000	12.3623
-31.3414	-7.065000	280.904
-22.3414	-7.065000	35.5901
-13.3414	-7.065000	176.063
-4.341423	-7.065000	13.5356
4.658577	-7.065000	162.28
13.6586	-7.065000	128.721
22.6586	-7.065000	186.343
-33.3414	-6.065000	325.511
-24.3414	-6.065000	234.144
-15.3414	-6.065000	280.53
-6.341423	-6.065000	108.887
2.658577	-6.065000	61.8298
11.6586	-6.065000	139.257
20.6586	-6.065000	194.346
-35.3414	-5.065000	241.557
-26.3414	-5.065000	180.906
-17.3414	-5.065000	10.4698
-8.341423	-5.065000	230.367
0.658577	-5.065000	64.3305
9.658577	-5.065000	56.0164
18.6586	-5.065000	205.827
-37.3414	-4.065000	225.349
-28.3414	-4.065000	103.878
-19.3414	-4.065000	70.669
-10.3414	-4.065000	186.291
-1.341423	-4.065000	17.5321
7.658577	-4.065000	134.896
16.6586	-4.065000	95.7353
-39.3414	-3.065000	5.013310
-30.3414	-3.065000	236.863
-21.3414	-3.065000	223.485
-12.3414	-3.065000	163.06
-3.341423	-3.065000	34.6119
5.658577	-3.065000	172.824
14.6586	-3.065000	222.083
23.6586	-3.065000	138.948
-32.3414	-2.065000	10.4021
-23.3414	-2.065000	239.819
-14.3414	-2.065000	270.899
-5.341423	-2.065000	231.26
3.658577	-2.065000	58.9937
12.6586	-2.065000	243.313
21.6586	-2.065000	9.523004
-34.3414	-1.065000	54.7691
-25.3414	-1.065000	266.784
-16.3414	-1.065000	172.503
-7.341423	-1.065000	139.049
1.658577	-1.065000	249.687
10.6586	-1.065000	164.513
19.6586	-1.065000	232.197
-36.3414	-0.065000	52.2954
-27.3414	-0.065000	4.039537
-18.3414	-0.065000	149.034
-9.341423	-0.065000	132.853
-0.341423	-0.065000	250.471
8.658577	-0.065000	125.858
17.6586	-0.065000	191.352
-38.3414	0.935000	52.1604
-29.3414	0.935000	12.7907
-20.3414	0.935000	76.6481
-11.3414	0.935000	193.107
-2.341423	0.935000	282.17
6.658577	0.935000	269.151
15.6586	0.935000	167.101
24.6586	0.935000	136.757
-31.3414	1.935000	188.364
-22.3414	1.935000	292.385
-13.3414	1.935000	354.845
-4.341423	1.935000	220.603
4.658577	1.935000	141.668
13.6586	1.935000	224.04
22.6586	1.935000	218.779
-33.3414	2.935000	88.8128
-24.3414	2.935000	148.774
-15.3414	2.935000	4.416778
-6.341423	2.935000	202.804
2.658577	2.935000	197.206
11.6586	2.935000	271.169
20.6586	2.935000	57.0488
-35.3414	3.935000	184.252
-26.3414	3.935000	240.293
-17.3414	3.935000	173.666
-8.341423	3.935000	180.607
0.658577	3.935000	303.295
9.658577	3.935000	287.756
18.6586	3.935000	241.147
-37.3414	4.935000	253.858
-28.3414	4.935000	96.8418
-19.3414	4.935000	273.98
-10.3414	4.935000	241.121
-1.341423	4.935000	275.219
7.658577	4.935000	264.955
16.6586	4.935000	233.291
-39.3414	5.935000	350.589
-30.3414	5.935000	21.4967
-21.3414	5.935000	39.1367
-12.3414	5.935000	55.572
-3.341423	5.935000	192.386
5.658577	5.935000	104.373
14.6586	5.935000	275.061
23.6586	5.935000	172.595
-32.3414	6.935000	241.581
-23.3414	6.935000	126.86
-14.3414	6.935000	258.063
-5.341423	6.935000	62.0472
3.658577	6.935000	32.0652
12.6586	6.935000	286.294
21.6586	6.935000	273.706
-34.3414	7.935000	282.228
-25.3414	7.935000	192.398
-16.3414	7.935000	213.71
-7.341423	7.935000	109.385
1.658577	7.935000	194.719
10.6586	7.935000	216.984
19.6586	7.935000	9.798481
-36.3414	8.935000	274.306
-27.3414	8.935000	182.745
-18.3414	8.935000	199.774
-9.341423	8.935000	100.909
-0.341423	8.935000	273.008
8.658577	8.935000	148.275
17.6586	8.935000	158.877
-38.3414	9.935000	233.952
-29.3414	9.935000	256.19
-20.3414	9.935000	179.282
-11.3414	9.935000	124.112
-2.341423	9.935000	181.698
6.658577	9.935000	134.194
15.6586	9.935000	1.728916
24.6586	9.935000	11.581
-31.3414	10.935	324.368
-22.3414	10.935	162.603
-13.3414	10.935	189.469
-4.341423	10.935	267.445
4.658577	10.935	148.179
13.6586	10.935	11.478
22.6586	10.935	93.5715
-33.3414	11.935	194.592
-24.3414	11.935	6.900530
-15.3414	11.935	297.623
-6.341423	11.935	105.771
2.658577	11.935	149.957
11.6586	11.935	229.535
20.6586	11.935	33.3999
-35.3414	12.935	277.721
-26.3414	12.935	33.0901
-17.3414	12.935	146.827
-8.341423	12.935	174.672
0.658577	12.935	200.832
9.658577	12.935	235.707
18.6586	12.935	5.456939
-37.3414	13.935	313.072
-28.3414	13.935	159.879
-19.3414	13.935	207.596
-10.3414	13.935	30.1271
-1.341423	13.935	149.031
7.658577	13.935	221.483
16.6586	13.935	5.737700
-39.3414	14.935	273.084
-30.3414	14.935	219.453
-21.3414	14.935	242.692
-12.3414	14.935	184.977
-3.341423	14.935	83.1344
5.658577	14.935	23.8786
14.6586	14.935	0.000000
23.6586	14.935	8.666229
-32.3414	15.935	263.302
-23.3414	15.935	8.103071
-14.3414	15.935	254.663
-5.341423	15.935	90.4932
3.658577	15.935	62.5949
12.6586	15.935	72.5924
21.6586	15.935	2.141288
24.6586	15.935	2.352299