File: data/derived_data/raman/20170920_Gr-NH2_for_Radisurf/20170920 Gr-NH for Radisurf map 2/2D pos.txt
#XList		#YList		#IList
-39.3414	-21.065	2713.71
-30.3414	-21.065	2704.52
-21.3414	-21.065	2707.62
-12.3414	-21.065	2701.04
-3.341423	-21.065	2719.75
5.658577	-21.065	2714.98
14.6586	-21.065	2699.59
23.6586	-21.065	2650
-32.3414	-20.065	2698.93
-23.3414	-20.065	2701.46
-14.3414	-20.065	2700.12
-5.341423	-20.065	2707.64
3.658577	-20.065	2714.48
12.6586	-20.065	2703.74
21.6586	-20.065	2699.42
-34.3414	-19.065	2709.77
-25.3414	-19.065	2701.65
-16.3414	-19.065	2699.33
-7.341423	-19.065	2703.2
1.658577	-19.065	2713.46
10.6586	-19.065	2710.58
19.6586	-19.065	2702.79
-36.3414	-18.065	2709.55
-27.3414	-18.065	2704.51
-18.3414	-18.065	2694.89
-9.341423	-18.065	2707.6
-0.341423	-18.065	2706.37
8.658577	-18.065	2692.75
17.6586	-18.065	2706.41
-38.3414	-17.065	2704.9
-29.3414	-17.065	2703.14
-20.3414	-17.065	2703.49
-11.3414	-17.065	2700.57
-2.341423	-17.065	2708.66
6.658577	-17.065	2701.65
15.6586	-17.065	2701.91
24.6586	-17.065	2699.89
-31.3414	-16.065	2701.89
-22.3414	-16.065	2702.58
-13.3414	-16.065	2695.22
-4.341423	-16.065	2706.13
4.658577	-16.065	2714.44
13.6586	-16.065	2704.99
22.6586	-16.065	2700.4
-33.3414	-15.065	2695.35
-24.3414	-15.065	2702.64
-15.3414	-15.065	2701.74
-6.341423	-15.065	2704.14
2.658577	-15.065	2712.49
11.6586	-15.065	2702
20.6586	-15.065	2707.69
-35.3414	-14.065	2699.64
-26.3414	-14.065	2700.98
-17.3414	-14.065	2701.86
-8.341423	-14.065	2706.4
0.658577	-14.065	2707.65
9.658577	-14.065	2703.64
18.6586	-14.065	2705.92
-37.3414	-13.065	2699.82
-28.3414	-13.065	2703.32
-19.3414	-13.065	2708.81
-10.3414	-13.065	2704.63
-1.341423	-13.065	2709.71
7.658577	-13.065	2700.62
16.6586	-13.065	2704.95
-39.3414	-12.065	2701.16
-30.3414	-12.065	2704.21
-21.3414	-12.065	2713.73
-12.3414	-12.065	2704.64
-3.341423	-12.065	2705.94
5.658577	-12.065	2713.71
14.6586	-12.065	2704.87
23.6586	-12.065	2709.58
-32.3414	-11.065	2703.25
-23.3414	-11.065	2700.76
-14.3414	-11.065	2706.61
-5.341423	-11.065	2709.81
3.658577	-11.065	2714.47
12.6586	-11.065	2704.28
21.6586	-11.065	2717.83
-34.3414	-10.065	2700.82
-25.3414	-10.065	2704.25
-16.3414	-10.065	2708.24
-7.341423	-10.065	2710.92
1.658577	-10.065	2706.21
10.6586	-10.065	2650
19.6586	-10.065	2715.72
-36.3414	-9.065000	2700.7
-27.3414	-9.065000	2701.49
-18.3414	-9.065000	2706.36
-9.341423	-9.065000	2700.97
-0.341423	-9.065000	2705.26
8.658577	-9.065000	2699.64
17.6586	-9.065000	2712.66
-38.3414	-8.065000	2703.57
-29.3414	-8.065000	2702.03
-20.3414	-8.065000	2713.31
-11.3414	-8.065000	2703.09
-2.341423	-8.065000	2715.4
6.658577	-8.065000	2696.59
15.6586	-8.065000	2707.59
24.6586	-8.065000	2711.48
-31.3414	-7.065000	2703.73
-22.3414	-7.065000	2707.99
-13.3414	-7.065000	2703.02
-4.341423	-7.065000	2706.63
4.658577	-7.065000	2702.17
13.6586	-7.065000	2698.4
22.6586	-7.065000	2710.37
-33.3414	-6.065000	2700.44
-24.3414	-6.065000	2693.33
-15.3414	-6.065000	2704.04
-6.341423	-6.065000	2701.39
2.658577	-6.065000	2704.51
11.6586	-6.065000	2705.33
20.6586	-6.065000	2716.68
-35.3414	-5.065000	2704.42
-26.3414	-5.065000	2702.75
-17.3414	-5.065000	2698.47
-8.341423	-5.065000	2707.92
0.658577	-5.065000	2701.74
9.658577	-5.065000	2711.07
18.6586	-5.065000	2712.41
-37.3414	-4.065000	2704.98
-28.3414	-4.065000	2699.63
-19.3414	-4.065000	2698.41
-10.3414	-4.065000	2707.35
-1.341423	-4.065000	2723.27
7.658577	-4.065000	2697.55
16.6586	-4.065000	2699.31
-39.3414	-3.065000	2650
-30.3414	-3.065000	2692.78
-21.3414	-3.065000	2698.84
-12.3414	-3.065000	2706.88
-3.341423	-3.065000	2702.91
5.658577	-3.065000	2712
14.6586	-3.065000	2696.95
23.6586	-3.065000	2710.85
-32.3414	-2.065000	2705.26
-23.3414	-2.065000	2699.68
-14.3414	-2.065000	2706.24
-5.341423	-2.065000	2709.84
3.658577	-2.065000	2695.8
12.6586	-2.065000	2705.66
21.6586	-2.065000	2696.21
-34.3414	-1.065000	2719.73
-25.3414	-1.065000	2709.29
-16.3414	-1.065000	2713.11
-7.341423	-1.065000	2708.54
1.658577	-1.065000	2698.27
10.6586	-1.065000	2702.96
19.6586	-1.065000	2704.59
-36.3414	-0.065000	2721.1
-27.3414	-0.065000	2750
-18.3414	-0.065000	2707
-9.341423	-0.065000	2712.43
-0.341423	-0.065000	2694.13
8.658577	-0.065000	2704.83
17.6586	-0.065000	2705.8
-38.3414	0.935000	2721.26
-29.3414	0.935000	2704.76
-20.3414	0.935000	2706.69
-11.3414	0.935000	2696.76
-2.341423	0.935000	2701.62
6.658577	0.935000	2700.75
15.6586	0.935000	2701.84
24.6586	0.935000	2709.51
-31.3414	1.935000	2704.6
-22.3414	1.935000	2705.78
-13.3414	1.935000	2704.39
-4.341423	1.935000	2692.48
4.658577	1.935000	2712.28
13.6586	1.935000	2694.79
22.6586	1.935000	2694.79
-33.3414	2.935000	2712.52
-24.3414	2.935000	2710.71
-15.3414	2.935000	2737.92
-6.341423	2.935000	2704.69
2.658577	2.935000	2707.31
11.6586	2.935000	2704.48
20.6586	2.935000	2706.55
-35.3414	3.935000	2706.15
-26.3414	3.935000	2702.87
-17.3414	3.935000	2701.13
-8.341423	3.935000	2711.96
0.658577	3.935000	2698.31
9.658577	3.935000	2700.69
18.6586	3.935000	2694.46
-37.3414	4.935000	2693.83
-28.3414	4.935000	2703.38
-19.3414	4.935000	2705.65
-10.3414	4.935000	2708.27
-1.341423	4.935000	2701.63
7.658577	4.935000	2705.95
16.6586	4.935000	2699.25
-39.3414	5.935000	2706.49
-30.3414	5.935000	2698.86
-21.3414	5.935000	2705.01
-12.3414	5.935000	2700.61
-3.341423	5.935000	2699.93
5.658577	5.935000	2706.3
14.6586	5.935000	2702.3
23.6586	5.935000	2705.29
-32.3414	6.935000	2703.54
-23.3414	6.935000	2709.13
-14.3414	6.935000	2704.14
-5.341423	6.935000	2708.13
3.658577	6.935000	2711.64
12.6586	6.935000	2700.6
21.6586	6.935000	2696.8
-34.3414	7.935000	2705.71
-25.3414	7.935000	2705.98
-16.3414	7.935000	2702.96
-7.341423	7.935000	2699.71
1.658577	7.935000	2701.12
10.6586	7.935000	2697.09
19.6586	7.935000	2715.03
-36.3414	8.935000	2699.91
-27.3414	8.935000	2704.82
-18.3414	8.935000	2702.5
-9.341423	8.935000	2703.15
-0.341423	8.935000	2693.91
8.658577	8.935000	2711.23
17.6586	8.935000	2698.79
-38.3414	9.935000	2701.36
-29.3414	9.935000	2700.32
-20.3414	9.935000	2704.44
-11.3414	9.935000	2705.89
-2.341423	9.935000	2704.94
6.658577	9.935000	2718.49
15.6586	9.935000	2710.02
24.6586	9.935000	2688.83
-31.3414	10.935	2702.91
-22.3414	10.935	2701.19
-13.3414	10.935	2703.6
-4.341423	10.935	2702.14
4.658577	10.935	2717.89
13.6586	10.935	2697.77
22.6586	10.935	2694.49
-33.3414	11.935	2703.54
-24.3414	11.935	2701.52
-15.3414	11.935	2701.46
-6.341423	11.935	2701.14
2.658577	11.935	2710.4
11.6586	11.935	2707.6
20.6586	11.935	2698
-35.3414	12.935	2703.86
-26.3414	12.935	2702.68
-17.3414	12.935	2705.24
-8.341423	12.935	2712.18
0.658577	12.935	2708.66
9.658577	12.935	2703.75
18.6586	12.935	2650
-37.3414	13.935	2701.22
-28.3414	13.935	2701.82
-19.3414	13.935	2704.51
-10.3414	13.935	2701.78
-1.341423	13.935	2706.52
7.658577	13.935	2701.09
16.6586	13.935	2650
-39.3414	14.935	2693.59
-30.3414	14.935	2704.43
-21.3414	14.935	2701.98
-12.3414	14.935	2699.3
-3.341423	14.935	2698.34
5.658577	14.935	2709.81
14.6586	14.935	2650
23.6586	14.935	2650
-32.3414	15.935	2699.82
-23.3414	15.935	2694.39
-14.3414	15.935	2694.68
-5.341423	15.935	2715.78
3.658577	15.935	2699.38
12.6586	15.935	2695.61
21.6586	15.935	2650
24.6586	15.935	2650