File: data/derived_data/raman/20170920_Gr-NH2_for_Radisurf/20170920 Gr-NH for Radisurf map 2/2Dp int.txt
#XList		#YList		#IList
-39.3414	-21.065	31.9634
-30.3414	-21.065	96.449
-21.3414	-21.065	21.0705
-12.3414	-21.065	96.3615
-3.341423	-21.065	8.119543
5.658577	-21.065	13.5335
14.6586	-21.065	44.2822
23.6586	-21.065	5.275904
-32.3414	-20.065	0.000000
-23.3414	-20.065	16.1716
-14.3414	-20.065	97.9376
-5.341423	-20.065	37.3389
3.658577	-20.065	16.8594
12.6586	-20.065	39.8267
21.6586	-20.065	30.7226
-34.3414	-19.065	2.056803
-25.3414	-19.065	52.3248
-16.3414	-19.065	134.843
-7.341423	-19.065	51.6832
1.658577	-19.065	21.0917
10.6586	-19.065	25.0926
19.6586	-19.065	66.9766
-36.3414	-18.065	36.2065
-27.3414	-18.065	65.4761
-18.3414	-18.065	32.072
-9.341423	-18.065	55.4023
-0.341423	-18.065	33.9858
8.658577	-18.065	20.1801
17.6586	-18.065	45.7337
-38.3414	-17.065	86.0862
-29.3414	-17.065	58.9294
-20.3414	-17.065	12.6354
-11.3414	-17.065	70.4419
-2.341423	-17.065	32.633
6.658577	-17.065	45.859
15.6586	-17.065	82.4621
24.6586	-17.065	58.1701
-31.3414	-16.065	82.1999
-22.3414	-16.065	49.8721
-13.3414	-16.065	0.000000
-4.341423	-16.065	53.9824
4.658577	-16.065	14.0943
13.6586	-16.065	10.3607
22.6586	-16.065	39.7803
-33.3414	-15.065	21.6449
-24.3414	-15.065	66.7572
-15.3414	-15.065	104.787
-6.341423	-15.065	32.8529
2.658577	-15.065	25.1204
11.6586	-15.065	75.6957
20.6586	-15.065	12.3372
-35.3414	-14.065	137.648
-26.3414	-14.065	80.1383
-17.3414	-14.065	23.2016
-8.341423	-14.065	20.16
0.658577	-14.065	57.4948
9.658577	-14.065	100.662
18.6586	-14.065	11.844
-37.3414	-13.065	146.155
-28.3414	-13.065	65.8031
-19.3414	-13.065	25.1257
-10.3414	-13.065	36.1583
-1.341423	-13.065	33.6275
7.658577	-13.065	103.343
16.6586	-13.065	20.271
-39.3414	-12.065	125.632
-30.3414	-12.065	117.235
-21.3414	-12.065	18.2235
-12.3414	-12.065	31.7882
-3.341423	-12.065	38.817
5.658577	-12.065	26.2918
14.6586	-12.065	31.8847
23.6586	-12.065	53.5311
-32.3414	-11.065	104.563
-23.3414	-11.065	45.8474
-14.3414	-11.065	26.1542
-5.341423	-11.065	20.6968
3.658577	-11.065	12.7833
12.6586	-11.065	3.102764
21.6586	-11.065	14.5414
-34.3414	-10.065	111.956
-25.3414	-10.065	70.8775
-16.3414	-10.065	39.011
-7.341423	-10.065	8.514418
1.658577	-10.065	54.7713
10.6586	-10.065	1.790840
19.6586	-10.065	19.73
-36.3414	-9.065000	137.608
-27.3414	-9.065000	141.584
-18.3414	-9.065000	21.9916
-9.341423	-9.065000	44.2141
-0.341423	-9.065000	48.4186
8.658577	-9.065000	1.888734
17.6586	-9.065000	46.8644
-38.3414	-8.065000	121.276
-29.3414	-8.065000	110.47
-20.3414	-8.065000	15.944
-11.3414	-8.065000	98.2315
-2.341423	-8.065000	4.266478
6.658577	-8.065000	54.6902
15.6586	-8.065000	34.2787
24.6586	-8.065000	5.221777
-31.3414	-7.065000	134.858
-22.3414	-7.065000	5.959353
-13.3414	-7.065000	58.9786
-4.341423	-7.065000	3.448789
4.658577	-7.065000	48.8151
13.6586	-7.065000	53.3786
22.6586	-7.065000	32.7186
-33.3414	-6.065000	157.701
-24.3414	-6.065000	0.000000
-15.3414	-6.065000	127.932
-6.341423	-6.065000	53.5968
2.658577	-6.065000	22.7754
11.6586	-6.065000	50.9622
20.6586	-6.065000	19.6003
-35.3414	-5.065000	102.155
-26.3414	-5.065000	67.6258
-17.3414	-5.065000	4.613028
-8.341423	-5.065000	113.057
0.658577	-5.065000	20.0318
9.658577	-5.065000	19.7617
18.6586	-5.065000	34.3145
-37.3414	-4.065000	51.5133
-28.3414	-4.065000	40.0629
-19.3414	-4.065000	31.0895
-10.3414	-4.065000	77.7574
-1.341423	-4.065000	10.9114
7.658577	-4.065000	52.9925
16.6586	-4.065000	36.5633
-39.3414	-3.065000	13.0033
-30.3414	-3.065000	20.9954
-21.3414	-3.065000	67.0198
-12.3414	-3.065000	64.6516
-3.341423	-3.065000	12.7749
5.658577	-3.065000	22.7744
14.6586	-3.065000	91.6732
23.6586	-3.065000	15.1561
-32.3414	-2.065000	8.623542
-23.3414	-2.065000	0.000000
-14.3414	-2.065000	130.64
-5.341423	-2.065000	70.6239
3.658577	-2.065000	22.424
12.6586	-2.065000	74.4358
21.6586	-2.065000	4.206266
-34.3414	-1.065000	6.795106
-25.3414	-1.065000	87.7767
-16.3414	-1.065000	29.893
-7.341423	-1.065000	40.9616
1.658577	-1.065000	93.5234
10.6586	-1.065000	32.1243
19.6586	-1.065000	48.416
-36.3414	-0.065000	2.325728
-27.3414	-0.065000	1.968215
-18.3414	-0.065000	53.9845
-9.341423	-0.065000	48.2151
-0.341423	-0.065000	0.000000
8.658577	-0.065000	59.6171
17.6586	-0.065000	60.8101
-38.3414	0.935000	5.552762
-29.3414	0.935000	1.586755
-20.3414	0.935000	29.9881
-11.3414	0.935000	0.000000
-2.341423	0.935000	106.912
6.658577	0.935000	0.000000
15.6586	0.935000	76.3341
24.6586	0.935000	27.5503
-31.3414	1.935000	50.0523
-22.3414	1.935000	97.5885
-13.3414	1.935000	173.1
-4.341423	1.935000	0.000000
4.658577	1.935000	41.5545
13.6586	1.935000	329.843
22.6586	1.935000	72.2352
-33.3414	2.935000	24.7495
-24.3414	2.935000	38.1666
-15.3414	2.935000	3.700463
-6.341423	2.935000	75.8814
2.658577	2.935000	56.6184
11.6586	2.935000	77.3581
20.6586	2.935000	23.8131
-35.3414	3.935000	55.3513
-26.3414	3.935000	87.1579
-17.3414	3.935000	65.5581
-8.341423	3.935000	40.716
0.658577	3.935000	115.092
9.658577	3.935000	111.938
18.6586	3.935000	0.000000
-37.3414	4.935000	0.000000
-28.3414	4.935000	37.6774
-19.3414	4.935000	99.6865
-10.3414	4.935000	69.9328
-1.341423	4.935000	75.9545
7.658577	4.935000	89.6608
16.6586	4.935000	78.6255
-39.3414	5.935000	185.399
-30.3414	5.935000	10.9757
-21.3414	5.935000	13.3935
-12.3414	5.935000	16.6585
-3.341423	5.935000	70.6575
5.658577	5.935000	36.5856
14.6586	5.935000	95.956
23.6586	5.935000	80.3773
-32.3414	6.935000	111.963
-23.3414	6.935000	38.0825
-14.3414	6.935000	108.839
-5.341423	6.935000	26.005
3.658577	6.935000	10.7304
12.6586	6.935000	111.205
21.6586	6.935000	106.628
-34.3414	7.935000	139.641
-25.3414	7.935000	56.2001
-16.3414	7.935000	95.9419
-7.341423	7.935000	23.887
1.658577	7.935000	72.902
10.6586	7.935000	0.000000
19.6586	7.935000	4.178961
-36.3414	8.935000	113.061
-27.3414	8.935000	58.1817
-18.3414	8.935000	70.6753
-9.341423	8.935000	22.1336
-0.341423	8.935000	0.000000
8.658577	8.935000	17.1039
17.6586	8.935000	55.7406
-38.3414	9.935000	109.509
-29.3414	9.935000	112.454
-20.3414	9.935000	51.0133
-11.3414	9.935000	31.757
-2.341423	9.935000	63.9755
6.658577	9.935000	12.9221
15.6586	9.935000	1.145085
24.6586	9.935000	3.644836
-31.3414	10.935	153.709
-22.3414	10.935	48.6252
-13.3414	10.935	79.337
-4.341423	10.935	86.8854
4.658577	10.935	14.7847
13.6586	10.935	6.115962
22.6586	10.935	28.3911
-33.3414	11.935	80.1847
-24.3414	11.935	3.716593
-15.3414	11.935	122.079
-6.341423	11.935	35.8908
2.658577	11.935	48.4521
11.6586	11.935	84.5003
20.6586	11.935	6.546557
-35.3414	12.935	122.457
-26.3414	12.935	8.423818
-17.3414	12.935	31.1162
-8.341423	12.935	22.38
0.658577	12.935	69.9037
9.658577	12.935	94.037
18.6586	12.935	2.736349
-37.3414	13.935	152.905
-28.3414	13.935	43.781
-19.3414	13.935	81.448
-10.3414	13.935	11.3619
-1.341423	13.935	33.3972
7.658577	13.935	71.8767
16.6586	13.935	8.339131
-39.3414	14.935	0.000000
-30.3414	14.935	97.6912
-21.3414	14.935	102.955
-12.3414	14.935	56.876
-3.341423	14.935	30.4808
5.658577	14.935	10.5705
14.6586	14.935	2.601676
23.6586	14.935	3.941494
-32.3414	15.935	126.307
-23.3414	15.935	7.404376
-14.3414	15.935	0.000000
-5.341423	15.935	7.819446
3.658577	15.935	18.3965
12.6586	15.935	23.4866
21.6586	15.935	1.812185
24.6586	15.935	2.471809