File: data/derived_data/raman/20170920_Gr-NH2_for_Radisurf/20170920 Gr-NH for Radisurf map 2/2Dp pos.txt
#XList		#YList		#IList
-39.3414	-21.065	3175.49
-30.3414	-21.065	3160.85
-21.3414	-21.065	3171.58
-12.3414	-21.065	3164.48
-3.341423	-21.065	3161.39
5.658577	-21.065	3177.28
14.6586	-21.065	3166.15
23.6586	-21.065	3100
-32.3414	-20.065	3350
-23.3414	-20.065	3164.04
-14.3414	-20.065	3157.08
-5.341423	-20.065	3175.87
3.658577	-20.065	3154.05
12.6586	-20.065	3164.81
21.6586	-20.065	3168.1
-34.3414	-19.065	3199.8
-25.3414	-19.065	3161.51
-16.3414	-19.065	3161
-7.341423	-19.065	3173.51
1.658577	-19.065	3175.22
10.6586	-19.065	3178.62
19.6586	-19.065	3164.11
-36.3414	-18.065	3168.08
-27.3414	-18.065	3175.7
-18.3414	-18.065	3165.34
-9.341423	-18.065	3154.56
-0.341423	-18.065	3171.7
8.658577	-18.065	3350
17.6586	-18.065	3162.54
-38.3414	-17.065	3169.47
-29.3414	-17.065	3177.93
-20.3414	-17.065	3150.64
-11.3414	-17.065	3159.4
-2.341423	-17.065	3154.62
6.658577	-17.065	3170.63
15.6586	-17.065	3165.78
24.6586	-17.065	3161.57
-31.3414	-16.065	3164.38
-22.3414	-16.065	3156.5
-13.3414	-16.065	3323.08
-4.341423	-16.065	3164.58
4.658577	-16.065	3200.7
13.6586	-16.065	3166.63
22.6586	-16.065	3172.27
-33.3414	-15.065	3350
-24.3414	-15.065	3164.15
-15.3414	-15.065	3154.69
-6.341423	-15.065	3174.23
2.658577	-15.065	3151.69
11.6586	-15.065	3154.7
20.6586	-15.065	3180.88
-35.3414	-14.065	3161.85
-26.3414	-14.065	3168.85
-17.3414	-14.065	3169.5
-8.341423	-14.065	3178.12
0.658577	-14.065	3165.35
9.658577	-14.065	3159.01
18.6586	-14.065	3196.33
-37.3414	-13.065	3152.91
-28.3414	-13.065	3164.56
-19.3414	-13.065	3153.51
-10.3414	-13.065	3166.65
-1.341423	-13.065	3152.6
7.658577	-13.065	3161.15
16.6586	-13.065	3166.1
-39.3414	-12.065	3164.82
-30.3414	-12.065	3156.1
-21.3414	-12.065	3172.76
-12.3414	-12.065	3168.01
-3.341423	-12.065	3165.7
5.658577	-12.065	3174.95
14.6586	-12.065	3181.37
23.6586	-12.065	3153.47
-32.3414	-11.065	3152.56
-23.3414	-11.065	3156.56
-14.3414	-11.065	3159.94
-5.341423	-11.065	3166.33
3.658577	-11.065	3172.28
12.6586	-11.065	3166.46
21.6586	-11.065	3189.47
-34.3414	-10.065	3159.17
-25.3414	-10.065	3160.95
-16.3414	-10.065	3160.22
-7.341423	-10.065	3172.47
1.658577	-10.065	3158.07
10.6586	-10.065	3100
19.6586	-10.065	3181.87
-36.3414	-9.065000	3162.45
-27.3414	-9.065000	3160.64
-18.3414	-9.065000	3160.38
-9.341423	-9.065000	3169.66
-0.341423	-9.065000	3166.73
8.658577	-9.065000	3147.59
17.6586	-9.065000	3175.53
-38.3414	-8.065000	3156.77
-29.3414	-8.065000	3151.87
-20.3414	-8.065000	3167.77
-11.3414	-8.065000	3157.31
-2.341423	-8.065000	3160.93
6.658577	-8.065000	3164.36
15.6586	-8.065000	3176.97
24.6586	-8.065000	3187.38
-31.3414	-7.065000	3160.51
-22.3414	-7.065000	3170.16
-13.3414	-7.065000	3156.47
-4.341423	-7.065000	3100
4.658577	-7.065000	3168.15
13.6586	-7.065000	3173.99
22.6586	-7.065000	3163.32
-33.3414	-6.065000	3161.04
-24.3414	-6.065000	3350
-15.3414	-6.065000	3157.87
-6.341423	-6.065000	3160.68
2.658577	-6.065000	3157.46
11.6586	-6.065000	3170.57
20.6586	-6.065000	3191.43
-35.3414	-5.065000	3153.05
-26.3414	-5.065000	3164.58
-17.3414	-5.065000	3168.41
-8.341423	-5.065000	3157.01
0.658577	-5.065000	3168.11
9.658577	-5.065000	3160.96
18.6586	-5.065000	3175.1
-37.3414	-4.065000	3162.82
-28.3414	-4.065000	3149.58
-19.3414	-4.065000	3182.38
-10.3414	-4.065000	3171.97
-1.341423	-4.065000	3181.35
7.658577	-4.065000	3164.22
16.6586	-4.065000	3171.38
-39.3414	-3.065000	3349.68
-30.3414	-3.065000	3350
-21.3414	-3.065000	3157.86
-12.3414	-3.065000	3167.71
-3.341423	-3.065000	3167
5.658577	-3.065000	3151.04
14.6586	-3.065000	3155.72
23.6586	-3.065000	3167.6
-32.3414	-2.065000	3191.64
-23.3414	-2.065000	3268.11
-14.3414	-2.065000	3155.54
-5.341423	-2.065000	3156.91
3.658577	-2.065000	3178.45
12.6586	-2.065000	3158.04
21.6586	-2.065000	3262.51
-34.3414	-1.065000	3174.3
-25.3414	-1.065000	3158.94
-16.3414	-1.065000	3183.79
-7.341423	-1.065000	3162.17
1.658577	-1.065000	3158.02
10.6586	-1.065000	3152.63
19.6586	-1.065000	3168.75
-36.3414	-0.065000	3215.19
-27.3414	-0.065000	3350
-18.3414	-0.065000	3168.5
-9.341423	-0.065000	3173.42
-0.341423	-0.065000	3349.46
8.658577	-0.065000	3162.89
17.6586	-0.065000	3147.31
-38.3414	0.935000	3254.58
-29.3414	0.935000	3225.5
-20.3414	0.935000	3160.11
-11.3414	0.935000	3350
-2.341423	0.935000	3160.35
6.658577	0.935000	3343.11
15.6586	0.935000	3166.63
24.6586	0.935000	3180.7
-31.3414	1.935000	3162.59
-22.3414	1.935000	3158.06
-13.3414	1.935000	3163.55
-4.341423	1.935000	3327.68
4.658577	1.935000	3184.29
13.6586	1.935000	3100.03
22.6586	1.935000	3164.58
-33.3414	2.935000	3164.56
-24.3414	2.935000	3172.31
-15.3414	2.935000	3239.35
-6.341423	2.935000	3163.53
2.658577	2.935000	3180.76
11.6586	2.935000	3160.19
20.6586	2.935000	3144.4
-35.3414	3.935000	3159.66
-26.3414	3.935000	3158
-17.3414	3.935000	3155.49
-8.341423	3.935000	3165.73
0.658577	3.935000	3159.19
9.658577	3.935000	3162.16
18.6586	3.935000	3349.85
-37.3414	4.935000	3320.69
-28.3414	4.935000	3177.82
-19.3414	4.935000	3152.97
-10.3414	4.935000	3170.77
-1.341423	4.935000	3160.18
7.658577	4.935000	3152.12
16.6586	4.935000	3166.88
-39.3414	5.935000	3159.69
-30.3414	5.935000	3179.09
-21.3414	5.935000	3162.65
-12.3414	5.935000	3169.71
-3.341423	5.935000	3163.15
5.658577	5.935000	3170.31
14.6586	5.935000	3161.45
23.6586	5.935000	3157.28
-32.3414	6.935000	3166.42
-23.3414	6.935000	3163.3
-14.3414	6.935000	3159.14
-5.341423	6.935000	3164.72
3.658577	6.935000	3187.46
12.6586	6.935000	3160.68
21.6586	6.935000	3163.73
-34.3414	7.935000	3151.93
-25.3414	7.935000	3157.77
-16.3414	7.935000	3164.32
-7.341423	7.935000	3163.19
1.658577	7.935000	3166.12
10.6586	7.935000	3322.19
19.6586	7.935000	3173.25
-36.3414	8.935000	3149.7
-27.3414	8.935000	3165.53
-18.3414	8.935000	3157.93
-9.341423	8.935000	3183.64
-0.341423	8.935000	3348.49
8.658577	8.935000	3190.59
17.6586	8.935000	3161.68
-38.3414	9.935000	3150.06
-29.3414	9.935000	3166.13
-20.3414	9.935000	3174.23
-11.3414	9.935000	3170.83
-2.341423	9.935000	3161.42
6.658577	9.935000	3163.86
15.6586	9.935000	3100
24.6586	9.935000	3147.1
-31.3414	10.935	3156.7
-22.3414	10.935	3160.64
-13.3414	10.935	3160.9
-4.341423	10.935	3157.67
4.658577	10.935	3166.38
13.6586	10.935	3238.57
22.6586	10.935	3157.5
-33.3414	11.935	3159.72
-24.3414	11.935	3308.18
-15.3414	11.935	3171.57
-6.341423	11.935	3173.44
2.658577	11.935	3167.13
11.6586	11.935	3163.04
20.6586	11.935	3161.8
-35.3414	12.935	3158.76
-26.3414	12.935	3172.73
-17.3414	12.935	3186.65
-8.341423	12.935	3183.23
0.658577	12.935	3167.26
9.658577	12.935	3161.26
18.6586	12.935	3350
-37.3414	13.935	3155.17
-28.3414	13.935	3171.77
-19.3414	13.935	3161.87
-10.3414	13.935	3152.69
-1.341423	13.935	3152.45
7.658577	13.935	3163.3
16.6586	13.935	3195.49
-39.3414	14.935	3348.63
-30.3414	14.935	3168.09
-21.3414	14.935	3161.09
-12.3414	14.935	3164.62
-3.341423	14.935	3162.66
5.658577	14.935	3170.27
14.6586	14.935	3100
23.6586	14.935	3350
-32.3414	15.935	3154.66
-23.3414	15.935	3188.88
-14.3414	15.935	3328.41
-5.341423	15.935	3202.71
3.658577	15.935	3173.88
12.6586	15.935	3167.52
21.6586	15.935	3342.44
24.6586	15.935	3350