File: data/derived_data/raman/20170920_Gr-NH2_for_Radisurf/20170920 Gr-NH for Radisurf map 2/2Dp FWHM.txt
#XList		#YList		#IList
-39.3414	-21.065	147.954
-30.3414	-21.065	130.145
-21.3414	-21.065	146.601
-12.3414	-21.065	133.075
-3.341423	-21.065	103.961
5.658577	-21.065	193.341
14.6586	-21.065	118.87
23.6586	-21.065	2552.78
-32.3414	-20.065	0.639823
-23.3414	-20.065	158.642
-14.3414	-20.065	128.267
-5.341423	-20.065	98.7108
3.658577	-20.065	165.914
12.6586	-20.065	135.56
21.6586	-20.065	106.294
-34.3414	-19.065	89.1576
-25.3414	-19.065	130.265
-16.3414	-19.065	120.541
-7.341423	-19.065	119.714
1.658577	-19.065	179.71
10.6586	-19.065	187.658
19.6586	-19.065	111.326
-36.3414	-18.065	178.531
-27.3414	-18.065	137.602
-18.3414	-18.065	109.549
-9.341423	-18.065	152.698
-0.341423	-18.065	145.695
8.658577	-18.065	0.639823
17.6586	-18.065	147.808
-38.3414	-17.065	117.386
-29.3414	-17.065	129.551
-20.3414	-17.065	131.173
-11.3414	-17.065	102.732
-2.341423	-17.065	162.099
6.658577	-17.065	129.731
15.6586	-17.065	115.528
24.6586	-17.065	114.474
-31.3414	-16.065	113.861
-22.3414	-16.065	158.658
-13.3414	-16.065	0.639823
-4.341423	-16.065	147.234
4.658577	-16.065	143.047
13.6586	-16.065	112.815
22.6586	-16.065	132.585
-33.3414	-15.065	0.639823
-24.3414	-15.065	134.141
-15.3414	-15.065	124.047
-6.341423	-15.065	123.753
2.658577	-15.065	157.035
11.6586	-15.065	112.986
20.6586	-15.065	97.3522
-35.3414	-14.065	136.793
-26.3414	-14.065	126.168
-17.3414	-14.065	89.0141
-8.341423	-14.065	170.847
0.658577	-14.065	159.637
9.658577	-14.065	135.467
18.6586	-14.065	36.9719
-37.3414	-13.065	130.263
-28.3414	-13.065	139.613
-19.3414	-13.065	161.174
-10.3414	-13.065	135.996
-1.341423	-13.065	169.974
7.658577	-13.065	124.122
16.6586	-13.065	135.285
-39.3414	-12.065	140.389
-30.3414	-12.065	132.473
-21.3414	-12.065	191.197
-12.3414	-12.065	137.284
-3.341423	-12.065	152.915
5.658577	-12.065	141.603
14.6586	-12.065	101.624
23.6586	-12.065	162.087
-32.3414	-11.065	131.03
-23.3414	-11.065	120.975
-14.3414	-11.065	163.609
-5.341423	-11.065	128.639
3.658577	-11.065	190.076
12.6586	-11.065	125.698
21.6586	-11.065	215.727
-34.3414	-10.065	127.108
-25.3414	-10.065	124.986
-16.3414	-10.065	154.786
-7.341423	-10.065	213.941
1.658577	-10.065	140.276
10.6586	-10.065	2595.12
19.6586	-10.065	174.351
-36.3414	-9.065000	117.301
-27.3414	-9.065000	118.198
-18.3414	-9.065000	171.753
-9.341423	-9.065000	97.3245
-0.341423	-9.065000	125.538
8.658577	-9.065000	122.604
17.6586	-9.065000	161.343
-38.3414	-8.065000	138.995
-29.3414	-8.065000	133.989
-20.3414	-8.065000	200.689
-11.3414	-8.065000	138.745
-2.341423	-8.065000	127.048
6.658577	-8.065000	116.299
15.6586	-8.065000	110.117
24.6586	-8.065000	68.1147
-31.3414	-7.065000	147.273
-22.3414	-7.065000	72.8383
-13.3414	-7.065000	135.519
-4.341423	-7.065000	692.483
4.658577	-7.065000	122.708
13.6586	-7.065000	97.2057
22.6586	-7.065000	139.711
-33.3414	-6.065000	129.792
-24.3414	-6.065000	0.639823
-15.3414	-6.065000	145.887
-6.341423	-6.065000	157.523
2.658577	-6.065000	141.209
11.6586	-6.065000	142.002
20.6586	-6.065000	188.158
-35.3414	-5.065000	134.823
-26.3414	-5.065000	121.111
-17.3414	-5.065000	43.3232
-8.341423	-5.065000	130.752
0.658577	-5.065000	140.995
9.658577	-5.065000	125.733
18.6586	-5.065000	161.154
-37.3414	-4.065000	114.16
-28.3414	-4.065000	112.797
-19.3414	-4.065000	99.3392
-10.3414	-4.065000	118.662
-1.341423	-4.065000	101.875
7.658577	-4.065000	123.166
16.6586	-4.065000	97.4164
-39.3414	-3.065000	0.639823
-30.3414	-3.065000	0.639823
-21.3414	-3.065000	121.846
-12.3414	-3.065000	149.519
-3.341423	-3.065000	102.273
5.658577	-3.065000	145.92
14.6586	-3.065000	114.073
23.6586	-3.065000	186.949
-32.3414	-2.065000	29.9436
-23.3414	-2.065000	0.639823
-14.3414	-2.065000	115.06
-5.341423	-2.065000	138.5
3.658577	-2.065000	104.087
12.6586	-2.065000	128.677
21.6586	-2.065000	37.3636
-34.3414	-1.065000	169.142
-25.3414	-1.065000	126.269
-16.3414	-1.065000	118.053
-7.341423	-1.065000	150.909
1.658577	-1.065000	110.519
10.6586	-1.065000	149.967
19.6586	-1.065000	122.858
-36.3414	-0.065000	124.077
-27.3414	-0.065000	1623.23
-18.3414	-0.065000	109.232
-9.341423	-0.065000	154.385
-0.341423	-0.065000	0.639823
8.658577	-0.065000	111.271
17.6586	-0.065000	153.494
-38.3414	0.935000	1059.14
-29.3414	0.935000	185.755
-20.3414	0.935000	103.818
-11.3414	0.935000	0.639823
-2.341423	0.935000	127.039
6.658577	0.935000	0.639823
15.6586	0.935000	115.832
24.6586	0.935000	161.391
-31.3414	1.935000	146.908
-22.3414	1.935000	125.412
-13.3414	1.935000	143.196
-4.341423	1.935000	0.639823
4.658577	1.935000	154.548
13.6586	1.935000	0.639823
22.6586	1.935000	119.891
-33.3414	2.935000	143.037
-24.3414	2.935000	215.416
-15.3414	2.935000	144.662
-6.341423	2.935000	134.893
2.658577	2.935000	137.112
11.6586	2.935000	113.128
20.6586	2.935000	122.989
-35.3414	3.935000	146.608
-26.3414	3.935000	139.718
-17.3414	3.935000	148.489
-8.341423	3.935000	130.397
0.658577	3.935000	131.105
9.658577	3.935000	104.646
18.6586	3.935000	0.639823
-37.3414	4.935000	0.639823
-28.3414	4.935000	102.657
-19.3414	4.935000	129.528
-10.3414	4.935000	133.015
-1.341423	4.935000	111.189
7.658577	4.935000	127.222
16.6586	4.935000	118.594
-39.3414	5.935000	132.67
-30.3414	5.935000	25.97
-21.3414	5.935000	197.635
-12.3414	5.935000	95.7588
-3.341423	5.935000	122.994
5.658577	5.935000	129.637
14.6586	5.935000	125.824
23.6586	5.935000	145.05
-32.3414	6.935000	108.037
-23.3414	6.935000	125.15
-14.3414	6.935000	136.38
-5.341423	6.935000	101.367
3.658577	6.935000	113.044
12.6586	6.935000	113.054
21.6586	6.935000	105.52
-34.3414	7.935000	142.225
-25.3414	7.935000	139.708
-16.3414	7.935000	122.868
-7.341423	7.935000	156.285
1.658577	7.935000	112.189
10.6586	7.935000	0.639823
19.6586	7.935000	98.4957
-36.3414	8.935000	125.953
-27.3414	8.935000	157.969
-18.3414	8.935000	155.256
-9.341423	8.935000	173.681
-0.341423	8.935000	0.639823
8.658577	8.935000	144.048
17.6586	8.935000	103.384
-38.3414	9.935000	163.061
-29.3414	9.935000	108.468
-20.3414	9.935000	120.691
-11.3414	9.935000	130.016
-2.341423	9.935000	112.263
6.658577	9.935000	252.78
15.6586	9.935000	2379.09
24.6586	9.935000	142.583
-31.3414	10.935	133.351
-22.3414	10.935	127.906
-13.3414	10.935	138.674
-4.341423	10.935	116.726
4.658577	10.935	180.851
13.6586	10.935	32.4031
22.6586	10.935	117.926
-33.3414	11.935	139.426
-24.3414	11.935	1103.55
-15.3414	11.935	108.557
-6.341423	11.935	150.6
2.658577	11.935	175.795
11.6586	11.935	151.095
20.6586	11.935	127.437
-35.3414	12.935	116.088
-26.3414	12.935	75.8871
-17.3414	12.935	113.674
-8.341423	12.935	183.75
0.658577	12.935	119.22
9.658577	12.935	137.242
18.6586	12.935	7.532866
-37.3414	13.935	137.616
-28.3414	13.935	127.037
-19.3414	13.935	153.139
-10.3414	13.935	145.297
-1.341423	13.935	137.239
7.658577	13.935	112.713
16.6586	13.935	0.639823
-39.3414	14.935	0.639823
-30.3414	14.935	121.391
-21.3414	14.935	122.012
-12.3414	14.935	104.454
-3.341423	14.935	128.235
5.658577	14.935	89.2264
14.6586	14.935	2595.12
23.6586	14.935	0.639823
-32.3414	15.935	126.193
-23.3414	15.935	36.4546
-14.3414	15.935	0.639823
-5.341423	15.935	108.599
3.658577	15.935	96.3339
12.6586	15.935	86.9977
21.6586	15.935	2595.12
24.6586	15.935	1089.63