File: data/derived_data/raman/20170920_Gr-NH2_for_Radisurf/20170920 Gr-NH for Radisurf map 2/D FWHM.txt
#XList		#YList		#IList
-39.3414	-21.065	100.945
-30.3414	-21.065	98.6695
-21.3414	-21.065	89.5212
-12.3414	-21.065	94.2915
-3.341423	-21.065	94.305
5.658577	-21.065	100.93
14.6586	-21.065	87.5437
23.6586	-21.065	2.949937
-32.3414	-20.065	96.9222
-23.3414	-20.065	71.0246
-14.3414	-20.065	95.7885
-5.341423	-20.065	85.0216
3.658577	-20.065	91.6061
12.6586	-20.065	89.6965
21.6586	-20.065	96.1897
-34.3414	-19.065	110.715
-25.3414	-19.065	85.0247
-16.3414	-19.065	99.0336
-7.341423	-19.065	85.8439
1.658577	-19.065	92.6111
10.6586	-19.065	72.201
19.6586	-19.065	93.5812
-36.3414	-18.065	103.161
-27.3414	-18.065	82.9795
-18.3414	-18.065	81.797
-9.341423	-18.065	91.3469
-0.341423	-18.065	89.6171
8.658577	-18.065	102.611
17.6586	-18.065	94.7492
-38.3414	-17.065	101.418
-29.3414	-17.065	81.6714
-20.3414	-17.065	89.8739
-11.3414	-17.065	98.187
-2.341423	-17.065	95.0341
6.658577	-17.065	97.167
15.6586	-17.065	97.6907
24.6586	-17.065	99.9939
-31.3414	-16.065	88.6065
-22.3414	-16.065	87.3011
-13.3414	-16.065	99.0607
-4.341423	-16.065	97.5201
4.658577	-16.065	105.052
13.6586	-16.065	103.449
22.6586	-16.065	96.0425
-33.3414	-15.065	100.939
-24.3414	-15.065	81.9028
-15.3414	-15.065	97.0852
-6.341423	-15.065	87.0557
2.658577	-15.065	95.296
11.6586	-15.065	96.8228
20.6586	-15.065	97.036
-35.3414	-14.065	95.4825
-26.3414	-14.065	89.3885
-17.3414	-14.065	99.9734
-8.341423	-14.065	78.2617
0.658577	-14.065	96.0964
9.658577	-14.065	98.3935
18.6586	-14.065	98.8228
-37.3414	-13.065	98.4533
-28.3414	-13.065	84.9309
-19.3414	-13.065	91.2517
-10.3414	-13.065	81.7315
-1.341423	-13.065	96.5648
7.658577	-13.065	101.589
16.6586	-13.065	96.533
-39.3414	-12.065	94.7587
-30.3414	-12.065	95.7645
-21.3414	-12.065	89.8829
-12.3414	-12.065	82.9223
-3.341423	-12.065	93.0973
5.658577	-12.065	96.6784
14.6586	-12.065	83.384
23.6586	-12.065	102.508
-32.3414	-11.065	96.4895
-23.3414	-11.065	83.6869
-14.3414	-11.065	95.9567
-5.341423	-11.065	90.6043
3.658577	-11.065	107.987
12.6586	-11.065	116.093
21.6586	-11.065	92.2765
-34.3414	-10.065	99.7783
-25.3414	-10.065	96.0893
-16.3414	-10.065	92.5553
-7.341423	-10.065	96.2122
1.658577	-10.065	98.2479
10.6586	-10.065	0.639823
19.6586	-10.065	95.8812
-36.3414	-9.065000	93.998
-27.3414	-9.065000	95.0474
-18.3414	-9.065000	91.3521
-9.341423	-9.065000	96.6114
-0.341423	-9.065000	96.8786
8.658577	-9.065000	93.3363
17.6586	-9.065000	105.58
-38.3414	-8.065000	94.6527
-29.3414	-8.065000	95.0458
-20.3414	-8.065000	103.965
-11.3414	-8.065000	97.771
-2.341423	-8.065000	96.7659
6.658577	-8.065000	88.1063
15.6586	-8.065000	98.3003
24.6586	-8.065000	98.1327
-31.3414	-7.065000	96.3434
-22.3414	-7.065000	89.4642
-13.3414	-7.065000	88.3419
-4.341423	-7.065000	78.7197
4.658577	-7.065000	79.0318
13.6586	-7.065000	92.1709
22.6586	-7.065000	99.459
-33.3414	-6.065000	99.811
-24.3414	-6.065000	97.1169
-15.3414	-6.065000	101.153
-6.341423	-6.065000	99.5856
2.658577	-6.065000	92.75
11.6586	-6.065000	99.0146
20.6586	-6.065000	99.228
-35.3414	-5.065000	94.5463
-26.3414	-5.065000	96.6903
-17.3414	-5.065000	112.93
-8.341423	-5.065000	97.7505
0.658577	-5.065000	92.0748
9.658577	-5.065000	97.0367
18.6586	-5.065000	95.9738
-37.3414	-4.065000	91.7714
-28.3414	-4.065000	97.3793
-19.3414	-4.065000	104.299
-10.3414	-4.065000	101.192
-1.341423	-4.065000	95.041
7.658577	-4.065000	95.029
16.6586	-4.065000	99.3114
-39.3414	-3.065000	0.639823
-30.3414	-3.065000	98.8193
-21.3414	-3.065000	86.3837
-12.3414	-3.065000	99.4818
-3.341423	-3.065000	90.6265
5.658577	-3.065000	101.077
14.6586	-3.065000	102.023
23.6586	-3.065000	75.6661
-32.3414	-2.065000	97.0886
-23.3414	-2.065000	98.5401
-14.3414	-2.065000	97.6101
-5.341423	-2.065000	99.3975
3.658577	-2.065000	87.9671
12.6586	-2.065000	100.467
21.6586	-2.065000	102.94
-34.3414	-1.065000	106.944
-25.3414	-1.065000	94.9273
-16.3414	-1.065000	102.412
-7.341423	-1.065000	92.5504
1.658577	-1.065000	96.2496
10.6586	-1.065000	83.0266
19.6586	-1.065000	95.7757
-36.3414	-0.065000	109.178
-27.3414	-0.065000	14.1829
-18.3414	-0.065000	98.733
-9.341423	-0.065000	100.056
-0.341423	-0.065000	91.3807
8.658577	-0.065000	99.5352
17.6586	-0.065000	89.8658
-38.3414	0.935000	69.163
-29.3414	0.935000	74.94
-20.3414	0.935000	93.6308
-11.3414	0.935000	99.5873
-2.341423	0.935000	92.3604
6.658577	0.935000	100.625
15.6586	0.935000	92.784
24.6586	0.935000	85.2455
-31.3414	1.935000	81.1258
-22.3414	1.935000	97.2319
-13.3414	1.935000	101.017
-4.341423	1.935000	98.453
4.658577	1.935000	99.8175
13.6586	1.935000	96.433
22.6586	1.935000	90.0919
-33.3414	2.935000	95.6413
-24.3414	2.935000	94.9827
-15.3414	2.935000	89.7328
-6.341423	2.935000	97.7094
2.658577	2.935000	89.0075
11.6586	2.935000	95.9978
20.6586	2.935000	88.5331
-35.3414	3.935000	96.293
-26.3414	3.935000	96.9174
-17.3414	3.935000	95.1434
-8.341423	3.935000	103.786
0.658577	3.935000	94.6616
9.658577	3.935000	95.4195
18.6586	3.935000	95.056
-37.3414	4.935000	95.7637
-28.3414	4.935000	92.6192
-19.3414	4.935000	95.0256
-10.3414	4.935000	99.9621
-1.341423	4.935000	95.2158
7.658577	4.935000	95.6241
16.6586	4.935000	89.4784
-39.3414	5.935000	95.7717
-30.3414	5.935000	99.1367
-21.3414	5.935000	96.2588
-12.3414	5.935000	89.9597
-3.341423	5.935000	94.0805
5.658577	5.935000	94.3641
14.6586	5.935000	100.364
23.6586	5.935000	98.6524
-32.3414	6.935000	94.5213
-23.3414	6.935000	94.0601
-14.3414	6.935000	98.5397
-5.341423	6.935000	99.1315
3.658577	6.935000	97.359
12.6586	6.935000	96.4656
21.6586	6.935000	96.561
-34.3414	7.935000	97.0542
-25.3414	7.935000	96.1997
-16.3414	7.935000	95.0944
-7.341423	7.935000	62.1066
1.658577	7.935000	100.361
10.6586	7.935000	97.9566
19.6586	7.935000	108.016
-36.3414	8.935000	100.856
-27.3414	8.935000	93.329
-18.3414	8.935000	91.2583
-9.341423	8.935000	62.9166
-0.341423	8.935000	94.0567
8.658577	8.935000	90.7832
17.6586	8.935000	101.428
-38.3414	9.935000	98.4013
-29.3414	9.935000	96.1509
-20.3414	9.935000	91.0436
-11.3414	9.935000	85.8157
-2.341423	9.935000	98.4518
6.658577	9.935000	108.38
15.6586	9.935000	99.1012
24.6586	9.935000	102.78
-31.3414	10.935	98.8795
-22.3414	10.935	84.9156
-13.3414	10.935	98.7392
-4.341423	10.935	96.4263
4.658577	10.935	102.657
13.6586	10.935	105.429
22.6586	10.935	93.1296
-33.3414	11.935	96.8241
-24.3414	11.935	85.5938
-15.3414	11.935	94.2258
-6.341423	11.935	77.2933
2.658577	11.935	99.1549
11.6586	11.935	98.2469
20.6586	11.935	106.14
-35.3414	12.935	96.2444
-26.3414	12.935	82.6494
-17.3414	12.935	84.46
-8.341423	12.935	90.1494
0.658577	12.935	103.535
9.658577	12.935	92.7158
18.6586	12.935	86.8917
-37.3414	13.935	95.0802
-28.3414	13.935	84.2323
-19.3414	13.935	93.8381
-10.3414	13.935	90.227
-1.341423	13.935	89.7322
7.658577	13.935	97.0882
16.6586	13.935	1.481596
-39.3414	14.935	99.3629
-30.3414	14.935	94.4994
-21.3414	14.935	98.1964
-12.3414	14.935	89.1593
-3.341423	14.935	94.4373
5.658577	14.935	108.353
14.6586	14.935	68.3085
23.6586	14.935	41.9349
-32.3414	15.935	98.3737
-23.3414	15.935	80.3124
-14.3414	15.935	91.5005
-5.341423	15.935	106.582
3.658577	15.935	106.335
12.6586	15.935	96.9345
21.6586	15.935	1.799804
24.6586	15.935	596.577