File: data/derived_data/raman/20170920_Gr-NH2_for_Radisurf/20170920 Gr-NH for Radisurf map 2/D int.txt
#XList		#YList		#IList
-39.3414	-21.065	137.29
-30.3414	-21.065	761.05
-21.3414	-21.065	235.947
-12.3414	-21.065	958.687
-3.341423	-21.065	50.623
5.658577	-21.065	92.945
14.6586	-21.065	651.862
23.6586	-21.065	11.762
-32.3414	-20.065	797.547
-23.3414	-20.065	205.425
-14.3414	-20.065	993.835
-5.341423	-20.065	381.862
3.658577	-20.065	121.969
12.6586	-20.065	531.964
21.6586	-20.065	337.374
-34.3414	-19.065	32.8605
-25.3414	-19.065	568.789
-16.3414	-19.065	1235.9
-7.341423	-19.065	612.224
1.658577	-19.065	99.0835
10.6586	-19.065	237.358
19.6586	-19.065	631.309
-36.3414	-18.065	224.227
-27.3414	-18.065	561.874
-18.3414	-18.065	531.198
-9.341423	-18.065	466.282
-0.341423	-18.065	247.413
8.658577	-18.065	895.249
17.6586	-18.065	427.06
-38.3414	-17.065	607.024
-29.3414	-17.065	570.713
-20.3414	-17.065	182.557
-11.3414	-17.065	630.965
-2.341423	-17.065	247.431
6.658577	-17.065	424.432
15.6586	-17.065	770.359
24.6586	-17.065	645.941
-31.3414	-16.065	557.64
-22.3414	-16.065	623.959
-13.3414	-16.065	1167.51
-4.341423	-16.065	425.219
4.658577	-16.065	100.81
13.6586	-16.065	98.8262
22.6586	-16.065	402.246
-33.3414	-15.065	1005.7
-24.3414	-15.065	590.254
-15.3414	-15.065	939.519
-6.341423	-15.065	353.15
2.658577	-15.065	191.039
11.6586	-15.065	681.939
20.6586	-15.065	124.922
-35.3414	-14.065	886.749
-26.3414	-14.065	614.202
-17.3414	-14.065	305.394
-8.341423	-14.065	157.593
0.658577	-14.065	409.039
9.658577	-14.065	669.539
18.6586	-14.065	121.749
-37.3414	-13.065	1003.55
-28.3414	-13.065	591.52
-19.3414	-13.065	216.931
-10.3414	-13.065	290.505
-1.341423	-13.065	268.114
7.658577	-13.065	838.843
16.6586	-13.065	198.278
-39.3414	-12.065	806.499
-30.3414	-12.065	758.624
-21.3414	-12.065	147.035
-12.3414	-12.065	451.749
-3.341423	-12.065	344.187
5.658577	-12.065	159.354
14.6586	-12.065	376.129
23.6586	-12.065	385.089
-32.3414	-11.065	715.343
-23.3414	-11.065	633.727
-14.3414	-11.065	172.724
-5.341423	-11.065	164.739
3.658577	-11.065	53.9914
12.6586	-11.065	37.3484
21.6586	-11.065	77.5047
-34.3414	-10.065	788.913
-25.3414	-10.065	657.916
-16.3414	-10.065	273.058
-7.341423	-10.065	66.2855
1.658577	-10.065	386.392
10.6586	-10.065	0.000000
19.6586	-10.065	123.26
-36.3414	-9.065000	845.022
-27.3414	-9.065000	931.759
-18.3414	-9.065000	140.027
-9.341423	-9.065000	266.37
-0.341423	-9.065000	351.008
8.658577	-9.065000	29.7746
17.6586	-9.065000	292.629
-38.3414	-8.065000	656.274
-29.3414	-8.065000	760.73
-20.3414	-8.065000	112.927
-11.3414	-8.065000	647.183
-2.341423	-8.065000	57.2764
6.658577	-8.065000	710.402
15.6586	-8.065000	304.012
24.6586	-8.065000	39.699
-31.3414	-7.065000	850.715
-22.3414	-7.065000	80.6309
-13.3414	-7.065000	503.5
-4.341423	-7.065000	20.904
4.658577	-7.065000	483.48
13.6586	-7.065000	569.865
22.6586	-7.065000	260.482
-33.3414	-6.065000	967.268
-24.3414	-6.065000	1029.51
-15.3414	-6.065000	830.194
-6.341423	-6.065000	372.419
2.658577	-6.065000	231.374
11.6586	-6.065000	404.25
20.6586	-6.065000	129.466
-35.3414	-5.065000	697.06
-26.3414	-5.065000	666.718
-17.3414	-5.065000	38.1471
-8.341423	-5.065000	670.865
0.658577	-5.065000	279.605
9.658577	-5.065000	151.505
18.6586	-5.065000	234.767
-37.3414	-4.065000	630.232
-28.3414	-4.065000	420.389
-19.3414	-4.065000	290.948
-10.3414	-4.065000	468.688
-1.341423	-4.065000	69.3693
7.658577	-4.065000	654.293
16.6586	-4.065000	421.422
-39.3414	-3.065000	0.000000
-30.3414	-3.065000	1031.8
-21.3414	-3.065000	823.5
-12.3414	-3.065000	433
-3.341423	-3.065000	97.9775
5.658577	-3.065000	238.13
14.6586	-3.065000	994.182
23.6586	-3.065000	149.545
-32.3414	-2.065000	25.9014
-23.3414	-2.065000	880.332
-14.3414	-2.065000	808.042
-5.341423	-2.065000	463.676
3.658577	-2.065000	309.262
12.6586	-2.065000	636.07
21.6586	-2.065000	33.0435
-34.3414	-1.065000	53.6384
-25.3414	-1.065000	727.993
-16.3414	-1.065000	245.035
-7.341423	-1.065000	241.422
1.658577	-1.065000	1082.01
10.6586	-1.065000	493.405
19.6586	-1.065000	561.717
-36.3414	-0.065000	19.1851
-27.3414	-0.065000	5.165654
-18.3414	-0.065000	518.978
-9.341423	-0.065000	243.902
-0.341423	-0.065000	1081.87
8.658577	-0.065000	488.862
17.6586	-0.065000	460.92
-38.3414	0.935000	7.298667
-29.3414	0.935000	14.4676
-20.3414	0.935000	307.088
-11.3414	0.935000	661.038
-2.341423	0.935000	868.195
6.658577	0.935000	836.212
15.6586	0.935000	497.175
24.6586	0.935000	195.39
-31.3414	1.935000	554.962
-22.3414	1.935000	734.268
-13.3414	1.935000	1043.47
-4.341423	1.935000	978.192
4.658577	1.935000	226.417
13.6586	1.935000	901.724
22.6586	1.935000	941.866
-33.3414	2.935000	168.006
-24.3414	2.935000	190.008
-15.3414	2.935000	13.6707
-6.341423	2.935000	555.176
2.658577	2.935000	393.763
11.6586	2.935000	655.612
20.6586	2.935000	222.754
-35.3414	3.935000	436.783
-26.3414	3.935000	767.267
-17.3414	3.935000	582.803
-8.341423	3.935000	227.617
0.658577	3.935000	1124.97
9.658577	3.935000	1015.61
18.6586	3.935000	1007.68
-37.3414	4.935000	975.924
-28.3414	4.935000	308.917
-19.3414	4.935000	791.369
-10.3414	4.935000	487.004
-1.341423	4.935000	951.93
7.658577	4.935000	673.731
16.6586	4.935000	807.962
-39.3414	5.935000	1077.34
-30.3414	5.935000	83.4262
-21.3414	5.935000	109.437
-12.3414	5.935000	194.506
-3.341423	5.935000	824.4
5.658577	5.935000	289.431
14.6586	5.935000	820.533
23.6586	5.935000	463.006
-32.3414	6.935000	745.388
-23.3414	6.935000	282.33
-14.3414	6.935000	632.39
-5.341423	6.935000	203.365
3.658577	6.935000	124.692
12.6586	6.935000	926.052
21.6586	6.935000	1179.5
-34.3414	7.935000	809.732
-25.3414	7.935000	495.455
-16.3414	7.935000	731.201
-7.341423	7.935000	371.878
1.658577	7.935000	793.213
10.6586	7.935000	796.029
19.6586	7.935000	45.6323
-36.3414	8.935000	878.868
-27.3414	8.935000	505.423
-18.3414	8.935000	553.218
-9.341423	8.935000	328.423
-0.341423	8.935000	1054.18
8.658577	8.935000	188.324
17.6586	8.935000	720.388
-38.3414	9.935000	773.8
-29.3414	9.935000	895.914
-20.3414	9.935000	504.009
-11.3414	9.935000	261.932
-2.341423	9.935000	591.668
6.658577	9.935000	74.2414
15.6586	9.935000	7.203486
24.6586	9.935000	26.1689
-31.3414	10.935	1068.92
-22.3414	10.935	617.724
-13.3414	10.935	696.078
-4.341423	10.935	918.16
4.658577	10.935	130.596
13.6586	10.935	40.1708
22.6586	10.935	465.901
-33.3414	11.935	563.432
-24.3414	11.935	33.5277
-15.3414	11.935	918
-6.341423	11.935	433.936
2.658577	11.935	306.515
11.6586	11.935	487.383
20.6586	11.935	135.995
-35.3414	12.935	787.912
-26.3414	12.935	131.854
-17.3414	12.935	506.248
-8.341423	12.935	195.82
0.658577	12.935	531.575
9.658577	12.935	669.474
18.6586	12.935	0.000000
-37.3414	13.935	906.844
-28.3414	13.935	586.992
-19.3414	13.935	482.446
-10.3414	13.935	90.4743
-1.341423	13.935	372.274
7.658577	13.935	821.567
16.6586	13.935	3.053999
-39.3414	14.935	1125.64
-30.3414	14.935	694.125
-21.3414	14.935	786.829
-12.3414	14.935	698.918
-3.341423	14.935	329.324
5.658577	14.935	127.885
14.6586	14.935	2.512001
23.6586	14.935	0.000000
-32.3414	15.935	832.868
-23.3414	15.935	33.4763
-14.3414	15.935	1163.96
-5.341423	15.935	69.3058
3.658577	15.935	261.005
12.6586	15.935	361.264
21.6586	15.935	6.413437
24.6586	15.935	0.921370