File: data/derived_data/raman/20170920_Gr-NH2_for_Radisurf/20170920 Gr-NH for Radisurf map 2/D pos.txt
#XList		#YList		#IList
-39.3414	-21.065	1357.72
-30.3414	-21.065	1355.11
-21.3414	-21.065	1354.54
-12.3414	-21.065	1352.11
-3.341423	-21.065	1357.95
5.658577	-21.065	1357.89
14.6586	-21.065	1352.03
23.6586	-21.065	1354.26
-32.3414	-20.065	1352.57
-23.3414	-20.065	1353.63
-14.3414	-20.065	1352.61
-5.341423	-20.065	1353.33
3.658577	-20.065	1356.23
12.6586	-20.065	1352.72
21.6586	-20.065	1353.33
-34.3414	-19.065	1355.97
-25.3414	-19.065	1353.05
-16.3414	-19.065	1351.79
-7.341423	-19.065	1352.95
1.658577	-19.065	1356.98
10.6586	-19.065	1354.49
19.6586	-19.065	1352.57
-36.3414	-18.065	1356.02
-27.3414	-18.065	1353.35
-18.3414	-18.065	1351.23
-9.341423	-18.065	1354.3
-0.341423	-18.065	1353.67
8.658577	-18.065	1354.6
17.6586	-18.065	1353.62
-38.3414	-17.065	1355.26
-29.3414	-17.065	1353.66
-20.3414	-17.065	1351.91
-11.3414	-17.065	1354.34
-2.341423	-17.065	1355.41
6.658577	-17.065	1354.11
15.6586	-17.065	1353.59
24.6586	-17.065	1352.27
-31.3414	-16.065	1353.82
-22.3414	-16.065	1353.81
-13.3414	-16.065	1353.13
-4.341423	-16.065	1354.32
4.658577	-16.065	1358.99
13.6586	-16.065	1352.88
22.6586	-16.065	1353.53
-33.3414	-15.065	1354.25
-24.3414	-15.065	1353.08
-15.3414	-15.065	1352.73
-6.341423	-15.065	1354
2.658577	-15.065	1353.56
11.6586	-15.065	1352.86
20.6586	-15.065	1355.49
-35.3414	-14.065	1353.16
-26.3414	-14.065	1353.92
-17.3414	-14.065	1352.59
-8.341423	-14.065	1353.34
0.658577	-14.065	1354.63
9.658577	-14.065	1354.91
18.6586	-14.065	1355.83
-37.3414	-13.065	1353.82
-28.3414	-13.065	1354.31
-19.3414	-13.065	1352.94
-10.3414	-13.065	1353.81
-1.341423	-13.065	1356.97
7.658577	-13.065	1354.58
16.6586	-13.065	1353.33
-39.3414	-12.065	1354.23
-30.3414	-12.065	1353.93
-21.3414	-12.065	1353.69
-12.3414	-12.065	1352.57
-3.341423	-12.065	1354.23
5.658577	-12.065	1357.34
14.6586	-12.065	1354.02
23.6586	-12.065	1355.21
-32.3414	-11.065	1353.11
-23.3414	-11.065	1353
-14.3414	-11.065	1355.43
-5.341423	-11.065	1354.01
3.658577	-11.065	1358.24
12.6586	-11.065	1359.79
21.6586	-11.065	1355.44
-34.3414	-10.065	1353.75
-25.3414	-10.065	1354.82
-16.3414	-10.065	1355.27
-7.341423	-10.065	1357.62
1.658577	-10.065	1354.1
10.6586	-10.065	1378.55
19.6586	-10.065	1353.16
-36.3414	-9.065000	1353.54
-27.3414	-9.065000	1354.08
-18.3414	-9.065000	1352.46
-9.341423	-9.065000	1356.33
-0.341423	-9.065000	1356.21
8.658577	-9.065000	1350.69
17.6586	-9.065000	1356.42
-38.3414	-8.065000	1353.76
-29.3414	-8.065000	1352.95
-20.3414	-8.065000	1358.23
-11.3414	-8.065000	1353.35
-2.341423	-8.065000	1355.76
6.658577	-8.065000	1352.56
15.6586	-8.065000	1354.2
24.6586	-8.065000	1353.67
-31.3414	-7.065000	1353.86
-22.3414	-7.065000	1357.94
-13.3414	-7.065000	1352.62
-4.341423	-7.065000	1352.92
4.658577	-7.065000	1353.86
13.6586	-7.065000	1352.21
22.6586	-7.065000	1353.3
-33.3414	-6.065000	1353.67
-24.3414	-6.065000	1353.11
-15.3414	-6.065000	1353.92
-6.341423	-6.065000	1354.88
2.658577	-6.065000	1355.3
11.6586	-6.065000	1356.47
20.6586	-6.065000	1356.14
-35.3414	-5.065000	1353.75
-26.3414	-5.065000	1353.11
-17.3414	-5.065000	1359.56
-8.341423	-5.065000	1355.06
0.658577	-5.065000	1353.71
9.658577	-5.065000	1356.68
18.6586	-5.065000	1354.24
-37.3414	-4.065000	1352.45
-28.3414	-4.065000	1354.33
-19.3414	-4.065000	1354.2
-10.3414	-4.065000	1356.5
-1.341423	-4.065000	1354.75
7.658577	-4.065000	1352.74
16.6586	-4.065000	1353.69
-39.3414	-3.065000	1379.69
-30.3414	-3.065000	1353.93
-21.3414	-3.065000	1353.42
-12.3414	-3.065000	1355.08
-3.341423	-3.065000	1355.17
5.658577	-3.065000	1355.73
14.6586	-3.065000	1353.12
23.6586	-3.065000	1355.47
-32.3414	-2.065000	1355.34
-23.3414	-2.065000	1354.31
-14.3414	-2.065000	1354.72
-5.341423	-2.065000	1355.52
3.658577	-2.065000	1351.42
12.6586	-2.065000	1354.67
21.6586	-2.065000	1352.34
-34.3414	-1.065000	1362.05
-25.3414	-1.065000	1352.75
-16.3414	-1.065000	1355.8
-7.341423	-1.065000	1356.41
1.658577	-1.065000	1352.38
10.6586	-1.065000	1352.63
19.6586	-1.065000	1352.71
-36.3414	-0.065000	1361.16
-27.3414	-0.065000	1378.62
-18.3414	-0.065000	1353.98
-9.341423	-0.065000	1356.26
-0.341423	-0.065000	1351.52
8.658577	-0.065000	1355.43
17.6586	-0.065000	1353.97
-38.3414	0.935000	1354.58
-29.3414	0.935000	1353.02
-20.3414	0.935000	1354.88
-11.3414	0.935000	1355.32
-2.341423	0.935000	1352.55
6.658577	0.935000	1354.38
15.6586	0.935000	1354.17
24.6586	0.935000	1355.37
-31.3414	1.935000	1353.83
-22.3414	1.935000	1353.01
-13.3414	1.935000	1355.13
-4.341423	1.935000	1353.42
4.658577	1.935000	1357.31
13.6586	1.935000	1352.99
22.6586	1.935000	1351.71
-33.3414	2.935000	1357.09
-24.3414	2.935000	1355.77
-15.3414	2.935000	1362.85
-6.341423	2.935000	1354.77
2.658577	2.935000	1354.83
11.6586	2.935000	1352.64
20.6586	2.935000	1353.84
-35.3414	3.935000	1355.01
-26.3414	3.935000	1354.36
-17.3414	3.935000	1352.83
-8.341423	3.935000	1358.5
0.658577	3.935000	1352.34
9.658577	3.935000	1352.48
18.6586	3.935000	1352.71
-37.3414	4.935000	1354.7
-28.3414	4.935000	1354.32
-19.3414	4.935000	1352.98
-10.3414	4.935000	1355.9
-1.341423	4.935000	1352.23
7.658577	4.935000	1353.73
16.6586	4.935000	1351.99
-39.3414	5.935000	1354.92
-30.3414	5.935000	1354.8
-21.3414	5.935000	1354.63
-12.3414	5.935000	1354.59
-3.341423	5.935000	1352.86
5.658577	5.935000	1354.88
14.6586	5.935000	1353.23
23.6586	5.935000	1354.53
-32.3414	6.935000	1353.98
-23.3414	6.935000	1354.32
-14.3414	6.935000	1355.38
-5.341423	6.935000	1355.19
3.658577	6.935000	1356.1
12.6586	6.935000	1353.69
21.6586	6.935000	1352.65
-34.3414	7.935000	1354.49
-25.3414	7.935000	1354.58
-16.3414	7.935000	1354.22
-7.341423	7.935000	1353.65
1.658577	7.935000	1353.61
10.6586	7.935000	1353.65
19.6586	7.935000	1358
-36.3414	8.935000	1353.94
-27.3414	8.935000	1355.41
-18.3414	8.935000	1354.91
-9.341423	8.935000	1354.67
-0.341423	8.935000	1353.45
8.658577	8.935000	1355.25
17.6586	8.935000	1353.18
-38.3414	9.935000	1354.07
-29.3414	9.935000	1354.41
-20.3414	9.935000	1353.55
-11.3414	9.935000	1352.53
-2.341423	9.935000	1354.04
6.658577	9.935000	1358.93
15.6586	9.935000	1374.17
24.6586	9.935000	1359.35
-31.3414	10.935	1354.63
-22.3414	10.935	1352.95
-13.3414	10.935	1354.9
-4.341423	10.935	1352.2
4.658577	10.935	1355.63
13.6586	10.935	1356.44
22.6586	10.935	1352.19
-33.3414	11.935	1354.14
-24.3414	11.935	1356.36
-15.3414	11.935	1354.61
-6.341423	11.935	1353.27
2.658577	11.935	1355.75
11.6586	11.935	1355.18
20.6586	11.935	1353.08
-35.3414	12.935	1354.13
-26.3414	12.935	1351.22
-17.3414	12.935	1353.48
-8.341423	12.935	1354.85
0.658577	12.935	1355.36
9.658577	12.935	1352.9
18.6586	12.935	1360.01
-37.3414	13.935	1354.1
-28.3414	13.935	1352.72
-19.3414	13.935	1353.55
-10.3414	13.935	1354.5
-1.341423	13.935	1353.75
7.658577	13.935	1351.66
16.6586	13.935	1379.18
-39.3414	14.935	1354.25
-30.3414	14.935	1354.1
-21.3414	14.935	1354.61
-12.3414	14.935	1353.58
-3.341423	14.935	1353.34
5.658577	14.935	1354.25
14.6586	14.935	1369.58
23.6586	14.935	1347
-32.3414	15.935	1354.65
-23.3414	15.935	1352.31
-14.3414	15.935	1353.15
-5.341423	15.935	1358.53
3.658577	15.935	1352.99
12.6586	15.935	1354.21
21.6586	15.935	1356.93
24.6586	15.935	1380