File: data/derived_data/raman/20170920_Gr-NH2_for_Radisurf/20170920 Gr-NH for Radisurf map 2/DDp int.txt
#XList		#YList		#IList
-39.3414	-21.065	70.5445
-30.3414	-21.065	303.573
-21.3414	-21.065	79.7991
-12.3414	-21.065	316.355
-3.341423	-21.065	16.4267
5.658577	-21.065	32.3621
14.6586	-21.065	167.364
23.6586	-21.065	0.000000
-32.3414	-20.065	264.209
-23.3414	-20.065	45.7462
-14.3414	-20.065	327.429
-5.341423	-20.065	117.762
3.658577	-20.065	51.5228
12.6586	-20.065	141.668
21.6586	-20.065	106.734
-34.3414	-19.065	9.808066
-25.3414	-19.065	190.895
-16.3414	-19.065	439.572
-7.341423	-19.065	175.389
1.658577	-19.065	42.1247
10.6586	-19.065	72.4632
19.6586	-19.065	226.648
-36.3414	-18.065	101.543
-27.3414	-18.065	199.004
-18.3414	-18.065	121.853
-9.341423	-18.065	172.071
-0.341423	-18.065	96.5831
8.658577	-18.065	400.929
17.6586	-18.065	155.34
-38.3414	-17.065	264.171
-29.3414	-17.065	197.624
-20.3414	-17.065	49.1479
-11.3414	-17.065	227.353
-2.341423	-17.065	98.271
6.658577	-17.065	145.583
15.6586	-17.065	280.723
24.6586	-17.065	197.872
-31.3414	-16.065	262.622
-22.3414	-16.065	183.564
-13.3414	-16.065	464.706
-4.341423	-16.065	164.164
4.658577	-16.065	38.2866
13.6586	-16.065	35.6068
22.6586	-16.065	117.054
-33.3414	-15.065	458.368
-24.3414	-15.065	220.002
-15.3414	-15.065	347.907
-6.341423	-15.065	125.32
2.658577	-15.065	73.7263
11.6586	-15.065	238.527
20.6586	-15.065	43.6052
-35.3414	-14.065	425.684
-26.3414	-14.065	247.876
-17.3414	-14.065	82.5483
-8.341423	-14.065	55.4467
0.658577	-14.065	166.325
9.658577	-14.065	315.968
18.6586	-14.065	36.673
-37.3414	-13.065	479.23
-28.3414	-13.065	239.706
-19.3414	-13.065	69.4405
-10.3414	-13.065	103.345
-1.341423	-13.065	113.509
7.658577	-13.065	349.628
16.6586	-13.065	59.9353
-39.3414	-12.065	369.145
-30.3414	-12.065	354.863
-21.3414	-12.065	52.3008
-12.3414	-12.065	128.33
-3.341423	-12.065	128.497
5.658577	-12.065	70.4076
14.6586	-12.065	106.151
23.6586	-12.065	165.012
-32.3414	-11.065	329.263
-23.3414	-11.065	178.314
-14.3414	-11.065	69.0707
-5.341423	-11.065	61.5914
3.658577	-11.065	26.2213
12.6586	-11.065	12.792
21.6586	-11.065	26.994
-34.3414	-10.065	362.017
-25.3414	-10.065	244.398
-16.3414	-10.065	127.436
-7.341423	-10.065	24.8861
1.658577	-10.065	159.371
10.6586	-10.065	15.4382
19.6586	-10.065	51.3815
-36.3414	-9.065000	411.069
-27.3414	-9.065000	429.517
-18.3414	-9.065000	53.0724
-9.341423	-9.065000	135.904
-0.341423	-9.065000	151.697
8.658577	-9.065000	6.089754
17.6586	-9.065000	133.096
-38.3414	-8.065000	348.778
-29.3414	-8.065000	356.865
-20.3414	-8.065000	45.8104
-11.3414	-8.065000	288.73
-2.341423	-8.065000	19.0862
6.658577	-8.065000	204.129
15.6586	-8.065000	104.02
24.6586	-8.065000	11.2987
-31.3414	-7.065000	407.573
-22.3414	-7.065000	27.4747
-13.3414	-7.065000	187.392
-4.341423	-7.065000	4.903596
4.658577	-7.065000	169.873
13.6586	-7.065000	169.309
22.6586	-7.065000	100.964
-33.3414	-6.065000	473.543
-24.3414	-6.065000	341.456
-15.3414	-6.065000	378.949
-6.341423	-6.065000	146.575
2.658577	-6.065000	75.0955
11.6586	-6.065000	160.471
20.6586	-6.065000	47.091
-35.3414	-5.065000	334.916
-26.3414	-5.065000	205.471
-17.3414	-5.065000	10.7196
-8.341423	-5.065000	321.865
0.658577	-5.065000	70.7651
9.658577	-5.065000	58.7262
18.6586	-5.065000	86.8142
-37.3414	-4.065000	188.764
-28.3414	-4.065000	134.426
-19.3414	-4.065000	91.3949
-10.3414	-4.065000	229.809
-1.341423	-4.065000	29.0894
7.658577	-4.065000	184.012
16.6586	-4.065000	129.418
-39.3414	-3.065000	0.000000
-30.3414	-3.065000	345.138
-21.3414	-3.065000	237.416
-12.3414	-3.065000	188.467
-3.341423	-3.065000	39.4167
5.658577	-3.065000	81.7494
14.6586	-3.065000	312.185
23.6586	-3.065000	49.2951
-32.3414	-2.065000	11.5529
-23.3414	-2.065000	339.295
-14.3414	-2.065000	387.74
-5.341423	-2.065000	222.857
3.658577	-2.065000	75.4829
12.6586	-2.065000	251.892
21.6586	-2.065000	8.162845
-34.3414	-1.065000	27.149
-25.3414	-1.065000	273.075
-16.3414	-1.065000	88.0082
-7.341423	-1.065000	113.324
1.658577	-1.065000	326.227
10.6586	-1.065000	132.069
19.6586	-1.065000	168.864
-36.3414	-0.065000	8.657269
-27.3414	-0.065000	10.1224
-18.3414	-0.065000	163.721
-9.341423	-0.065000	127.257
-0.341423	-0.065000	329.082
8.658577	-0.065000	179.064
17.6586	-0.065000	193.415
-38.3414	0.935000	2.986647
-29.3414	0.935000	6.180065
-20.3414	0.935000	99.9087
-11.3414	0.935000	334.689
-2.341423	0.935000	325.74
6.658577	0.935000	321.254
15.6586	0.935000	228.078
24.6586	0.935000	81.6099
-31.3414	1.935000	162.47
-22.3414	1.935000	292.395
-13.3414	1.935000	522.333
-4.341423	1.935000	333.145
4.658577	1.935000	107.96
13.6586	1.935000	311.964
22.6586	1.935000	259.058
-33.3414	2.935000	66.185
-24.3414	2.935000	100.522
-15.3414	2.935000	5.530935
-6.341423	2.935000	230.223
2.658577	2.935000	162.659
11.6586	2.935000	247.829
20.6586	2.935000	67.6879
-35.3414	3.935000	171.792
-26.3414	3.935000	266.638
-17.3414	3.935000	216.331
-8.341423	3.935000	103.473
0.658577	3.935000	364.102
9.658577	3.935000	361.297
18.6586	3.935000	359.245
-37.3414	4.935000	418.776
-28.3414	4.935000	125.169
-19.3414	4.935000	325.116
-10.3414	4.935000	203.2
-1.341423	4.935000	280.934
7.658577	4.935000	277.345
16.6586	4.935000	280.218
-39.3414	5.935000	524.951
-30.3414	5.935000	26.0382
-21.3414	5.935000	38.6028
-12.3414	5.935000	58.5222
-3.341423	5.935000	236.129
5.658577	5.935000	103.959
14.6586	5.935000	316.915
23.6586	5.935000	221.867
-32.3414	6.935000	337.709
-23.3414	6.935000	114.791
-14.3414	6.935000	322.548
-5.341423	6.935000	76.6753
3.658577	6.935000	39.2259
12.6586	6.935000	373.702
21.6586	6.935000	369.885
-34.3414	7.935000	396.03
-25.3414	7.935000	169.694
-16.3414	7.935000	288.482
-7.341423	7.935000	82.6877
1.658577	7.935000	245.048
10.6586	7.935000	299.181
19.6586	7.935000	14.4188
-36.3414	8.935000	380.458
-27.3414	8.935000	168.266
-18.3414	8.935000	214.492
-9.341423	8.935000	80.8811
-0.341423	8.935000	392.885
8.658577	8.935000	59.5574
17.6586	8.935000	208.499
-38.3414	9.935000	340.045
-29.3414	9.935000	354.613
-20.3414	9.935000	167.272
-11.3414	9.935000	102.549
-2.341423	9.935000	213.402
6.658577	9.935000	35.8164
15.6586	9.935000	3.752163
24.6586	9.935000	11.7701
-31.3414	10.935	474.386
-22.3414	10.935	162.138
-13.3414	10.935	248.782
-4.341423	10.935	298.246
4.658577	10.935	45.8286
13.6586	10.935	12.4449
22.6586	10.935	119.326
-33.3414	11.935	251.139
-24.3414	11.935	9.694776
-15.3414	11.935	418.078
-6.341423	11.935	110.944
2.658577	11.935	141.424
11.6586	11.935	236.939
20.6586	11.935	34.2976
-35.3414	12.935	378.599
-26.3414	12.935	28.9405
-17.3414	12.935	125.005
-8.341423	12.935	64.8673
0.658577	12.935	214.353
9.658577	12.935	278.641
18.6586	12.935	0.000000
-37.3414	13.935	435.297
-28.3414	13.935	149.069
-19.3414	13.935	228.194
-10.3414	13.935	34.8332
-1.341423	13.935	110.388
7.658577	13.935	238.081
16.6586	13.935	0.000000
-39.3414	14.935	464.199
-30.3414	14.935	313.219
-21.3414	14.935	329.083
-12.3414	14.935	206.656
-3.341423	14.935	102.342
5.658577	14.935	31.7223
14.6586	14.935	0.000000
23.6586	14.935	173.11
-32.3414	15.935	401.658
-23.3414	15.935	8.353863
-14.3414	15.935	347.158
-5.341423	15.935	25.7615
3.658577	15.935	71.2192
12.6586	15.935	100.561
21.6586	15.935	0.000000
24.6586	15.935	4.241882