File: data/derived_data/raman/20170920_Gr-NH2_for_Radisurf/20170920 Gr-NH for Radisurf map 2/DDp FWHM.txt
#XList		#YList		#IList
-39.3414	-21.065	183.123
-30.3414	-21.065	195.34
-21.3414	-21.065	177.479
-12.3414	-21.065	197.568
-3.341423	-21.065	175.455
5.658577	-21.065	125.131
14.6586	-21.065	173.043
23.6586	-21.065	178.092
-32.3414	-20.065	280.99
-23.3414	-20.065	166.302
-14.3414	-20.065	180.162
-5.341423	-20.065	185.394
3.658577	-20.065	164.227
12.6586	-20.065	165.774
21.6586	-20.065	189.149
-34.3414	-19.065	156.023
-25.3414	-19.065	179.33
-16.3414	-19.065	193.029
-7.341423	-19.065	171.401
1.658577	-19.065	201.776
10.6586	-19.065	194.832
19.6586	-19.065	182.955
-36.3414	-18.065	180.953
-27.3414	-18.065	176.735
-18.3414	-18.065	171.866
-9.341423	-18.065	179.075
-0.341423	-18.065	212.397
8.658577	-18.065	287.357
17.6586	-18.065	182.236
-38.3414	-17.065	199.771
-29.3414	-17.065	182.44
-20.3414	-17.065	160.725
-11.3414	-17.065	198.458
-2.341423	-17.065	172.345
6.658577	-17.065	194.375
15.6586	-17.065	186.396
24.6586	-17.065	197.511
-31.3414	-16.065	199.881
-22.3414	-16.065	182.109
-13.3414	-16.065	286.586
-4.341423	-16.065	183.289
4.658577	-16.065	165.962
13.6586	-16.065	196.309
22.6586	-16.065	188.1
-33.3414	-15.065	278.102
-24.3414	-15.065	177.349
-15.3414	-15.065	191.922
-6.341423	-15.065	188.849
2.658577	-15.065	180.367
11.6586	-15.065	179.206
20.6586	-15.065	209.77
-35.3414	-14.065	204.79
-26.3414	-14.065	194.719
-17.3414	-14.065	193.236
-8.341423	-14.065	171.742
0.658577	-14.065	181.556
9.658577	-14.065	194.216
18.6586	-14.065	216.99
-37.3414	-13.065	188.053
-28.3414	-13.065	179.939
-19.3414	-13.065	174.268
-10.3414	-13.065	185.059
-1.341423	-13.065	202.441
7.658577	-13.065	203.553
16.6586	-13.065	185.022
-39.3414	-12.065	208.885
-30.3414	-12.065	194.386
-21.3414	-12.065	164.468
-12.3414	-12.065	180.352
-3.341423	-12.065	183.549
5.658577	-12.065	193.893
14.6586	-12.065	180.816
23.6586	-12.065	182.266
-32.3414	-11.065	186.921
-23.3414	-11.065	170.592
-14.3414	-11.065	190.503
-5.341423	-11.065	209.52
3.658577	-11.065	150.246
12.6586	-11.065	187.17
21.6586	-11.065	137.486
-34.3414	-10.065	199.35
-25.3414	-10.065	191.257
-16.3414	-10.065	188.969
-7.341423	-10.065	184.956
1.658577	-10.065	188.759
10.6586	-10.065	0.639823
19.6586	-10.065	143.709
-36.3414	-9.065000	204.164
-27.3414	-9.065000	195.44
-18.3414	-9.065000	157.791
-9.341423	-9.065000	218.606
-0.341423	-9.065000	190.178
8.658577	-9.065000	147.621
17.6586	-9.065000	181.142
-38.3414	-8.065000	197.596
-29.3414	-8.065000	201.319
-20.3414	-8.065000	133.307
-11.3414	-8.065000	187.77
-2.341423	-8.065000	183.98
6.658577	-8.065000	188.032
15.6586	-8.065000	208.422
24.6586	-8.065000	175.394
-31.3414	-7.065000	192.117
-22.3414	-7.065000	187.3
-13.3414	-7.065000	187.349
-4.341423	-7.065000	106.942
4.658577	-7.065000	181.603
13.6586	-7.065000	183.236
22.6586	-7.065000	183.318
-33.3414	-6.065000	196.37
-24.3414	-6.065000	279.41
-15.3414	-6.065000	200.747
-6.341423	-6.065000	197.59
2.658577	-6.065000	187.668
11.6586	-6.065000	197.668
20.6586	-6.065000	181.885
-35.3414	-5.065000	190.548
-26.3414	-5.065000	185.47
-17.3414	-5.065000	254.052
-8.341423	-5.065000	197.804
0.658577	-5.065000	172.407
9.658577	-5.065000	173.504
18.6586	-5.065000	168.492
-37.3414	-4.065000	183.947
-28.3414	-4.065000	185.683
-19.3414	-4.065000	183.341
-10.3414	-4.065000	222.108
-1.341423	-4.065000	160.686
7.658577	-4.065000	186.562
16.6586	-4.065000	191.302
-39.3414	-3.065000	0.639823
-30.3414	-3.065000	273.883
-21.3414	-3.065000	184.003
-12.3414	-3.065000	226.497
-3.341423	-3.065000	248.602
5.658577	-3.065000	183.806
14.6586	-3.065000	192.562
23.6586	-3.065000	159.796
-32.3414	-2.065000	163.442
-23.3414	-2.065000	272.322
-14.3414	-2.065000	191.939
-5.341423	-2.065000	197.921
3.658577	-2.065000	177.602
12.6586	-2.065000	188.256
21.6586	-2.065000	186.262
-34.3414	-1.065000	240.924
-25.3414	-1.065000	184.98
-16.3414	-1.065000	182.296
-7.341423	-1.065000	201.364
1.658577	-1.065000	184.692
10.6586	-1.065000	183.374
19.6586	-1.065000	185.153
-36.3414	-0.065000	183.979
-27.3414	-0.065000	2.345685
-18.3414	-0.065000	184.246
-9.341423	-0.065000	209.648
-0.341423	-0.065000	271.615
8.658577	-0.065000	194.42
17.6586	-0.065000	182.684
-38.3414	0.935000	3.385273
-29.3414	0.935000	136.682
-20.3414	0.935000	193.416
-11.3414	0.935000	302.501
-2.341423	0.935000	188.117
6.658577	0.935000	288.44
15.6586	0.935000	192.204
24.6586	0.935000	211.848
-31.3414	1.935000	168.56
-22.3414	1.935000	187.69
-13.3414	1.935000	202.529
-4.341423	1.935000	295.766
4.658577	1.935000	209.634
13.6586	1.935000	279.455
22.6586	1.935000	177.434
-33.3414	2.935000	191.947
-24.3414	2.935000	190.206
-15.3414	2.935000	63.0654
-6.341423	2.935000	191.462
2.658577	2.935000	180.019
11.6586	2.935000	183.445
20.6586	2.935000	161.73
-35.3414	3.935000	191.681
-26.3414	3.935000	179.246
-17.3414	3.935000	177.635
-8.341423	3.935000	184.875
0.658577	3.935000	186.254
9.658577	3.935000	184.567
18.6586	3.935000	263.485
-37.3414	4.935000	292.211
-28.3414	4.935000	190.824
-19.3414	4.935000	182.503
-10.3414	4.935000	201.231
-1.341423	4.935000	187.398
7.658577	4.935000	185.941
16.6586	4.935000	175.491
-39.3414	5.935000	196.748
-30.3414	5.935000	197.869
-21.3414	5.935000	170.385
-12.3414	5.935000	213.668
-3.341423	5.935000	181.178
5.658577	5.935000	181.46
14.6586	5.935000	188.669
23.6586	5.935000	191.409
-32.3414	6.935000	198.576
-23.3414	6.935000	172.775
-14.3414	6.935000	200.563
-5.341423	6.935000	186.601
3.658577	6.935000	210.066
12.6586	6.935000	191.135
21.6586	6.935000	188.386
-34.3414	7.935000	193.102
-25.3414	7.935000	175.359
-16.3414	7.935000	189.246
-7.341423	7.935000	156.991
1.658577	7.935000	186.328
10.6586	7.935000	282.57
19.6586	7.935000	134.552
-36.3414	8.935000	195.473
-27.3414	8.935000	194.499
-18.3414	8.935000	178.901
-9.341423	8.935000	142.45
-0.341423	8.935000	269.404
8.658577	8.935000	190.562
17.6586	8.935000	181.014
-38.3414	9.935000	195.868
-29.3414	9.935000	217.213
-20.3414	9.935000	183.407
-11.3414	9.935000	187.347
-2.341423	9.935000	176.73
6.658577	9.935000	141.293
15.6586	9.935000	56.7893
24.6586	9.935000	162.382
-31.3414	10.935	196.438
-22.3414	10.935	176.857
-13.3414	10.935	181.554
-4.341423	10.935	182.26
4.658577	10.935	180.485
13.6586	10.935	169.341
22.6586	10.935	183.021
-33.3414	11.935	206.861
-24.3414	11.935	149.585
-15.3414	11.935	208.916
-6.341423	11.935	176.124
2.658577	11.935	195.371
11.6586	11.935	190.885
20.6586	11.935	170.398
-35.3414	12.935	202.261
-26.3414	12.935	138.91
-17.3414	12.935	185.849
-8.341423	12.935	183.024
0.658577	12.935	188.081
9.658577	12.935	186.963
18.6586	12.935	212.86
-37.3414	13.935	192.907
-28.3414	13.935	171.498
-19.3414	13.935	197.369
-10.3414	13.935	183.366
-1.341423	13.935	171.776
7.658577	13.935	181.194
16.6586	13.935	0.639823
-39.3414	14.935	292.373
-30.3414	14.935	183.534
-21.3414	14.935	187.014
-12.3414	14.935	192.98
-3.341423	14.935	195.488
5.658577	14.935	177.033
14.6586	14.935	39.7613
23.6586	14.935	0.644574
-32.3414	15.935	198.913
-23.3414	15.935	202.23
-14.3414	15.935	272.074
-5.341423	15.935	198.75
3.658577	15.935	192.204
12.6586	15.935	184.65
21.6586	15.935	128.215
24.6586	15.935	20.0106