File: data/derived_data/raman/20170920_Gr-NH2_for_Radisurf/20170920 Gr-NH for Radisurf map 2/DDp pos.txt
#XList		#YList		#IList
-39.3414	-21.065	2941.71
-30.3414	-21.065	2933.01
-21.3414	-21.065	2936.62
-12.3414	-21.065	2929.79
-3.341423	-21.065	2920.13
5.658577	-21.065	2936.34
14.6586	-21.065	2933.31
23.6586	-21.065	2900
-32.3414	-20.065	2930.9
-23.3414	-20.065	2928.04
-14.3414	-20.065	2929.95
-5.341423	-20.065	2938.74
3.658577	-20.065	2934.3
12.6586	-20.065	2936.31
21.6586	-20.065	2933.9
-34.3414	-19.065	2944.35
-25.3414	-19.065	2934.41
-16.3414	-19.065	2929.18
-7.341423	-19.065	2932.34
1.658577	-19.065	2937.4
10.6586	-19.065	2940.87
19.6586	-19.065	2935.76
-36.3414	-18.065	2932.58
-27.3414	-18.065	2935.07
-18.3414	-18.065	2932.78
-9.341423	-18.065	2932.77
-0.341423	-18.065	2937.13
8.658577	-18.065	2935.4
17.6586	-18.065	2935.06
-38.3414	-17.065	2934.61
-29.3414	-17.065	2935.68
-20.3414	-17.065	2932.67
-11.3414	-17.065	2933.01
-2.341423	-17.065	2933.7
6.658577	-17.065	2931.28
15.6586	-17.065	2932.11
24.6586	-17.065	2930.91
-31.3414	-16.065	2933.39
-22.3414	-16.065	2931.77
-13.3414	-16.065	2933.52
-4.341423	-16.065	2933.79
4.658577	-16.065	2938.39
13.6586	-16.065	2933.82
22.6586	-16.065	2934.57
-33.3414	-15.065	2935.07
-24.3414	-15.065	2933.52
-15.3414	-15.065	2929.37
-6.341423	-15.065	2935.38
2.658577	-15.065	2938.44
11.6586	-15.065	2931.94
20.6586	-15.065	2933.81
-35.3414	-14.065	2933.09
-26.3414	-14.065	2935.98
-17.3414	-14.065	2934.88
-8.341423	-14.065	2939.29
0.658577	-14.065	2934.58
9.658577	-14.065	2932.48
18.6586	-14.065	2933.12
-37.3414	-13.065	2930.8
-28.3414	-13.065	2933.84
-19.3414	-13.065	2936.24
-10.3414	-13.065	2940.15
-1.341423	-13.065	2934.72
7.658577	-13.065	2930
16.6586	-13.065	2936.13
-39.3414	-12.065	2928.93
-30.3414	-12.065	2931.45
-21.3414	-12.065	2930.01
-12.3414	-12.065	2935.25
-3.341423	-12.065	2932.53
5.658577	-12.065	2939.96
14.6586	-12.065	2938.64
23.6586	-12.065	2935.11
-32.3414	-11.065	2931.58
-23.3414	-11.065	2933.14
-14.3414	-11.065	2933.1
-5.341423	-11.065	2939.1
3.658577	-11.065	2943.82
12.6586	-11.065	2946.81
21.6586	-11.065	2938.29
-34.3414	-10.065	2931.44
-25.3414	-10.065	2930.69
-16.3414	-10.065	2930.82
-7.341423	-10.065	2934.06
1.658577	-10.065	2936.1
10.6586	-10.065	3000
19.6586	-10.065	2939.15
-36.3414	-9.065000	2933.38
-27.3414	-9.065000	2930.96
-18.3414	-9.065000	2933.64
-9.341423	-9.065000	2933.32
-0.341423	-9.065000	2934.37
8.658577	-9.065000	2948
17.6586	-9.065000	2936.25
-38.3414	-8.065000	2932.83
-29.3414	-8.065000	2929.85
-20.3414	-8.065000	2938.22
-11.3414	-8.065000	2930.37
-2.341423	-8.065000	2935.11
6.658577	-8.065000	2934.95
15.6586	-8.065000	2936.48
24.6586	-8.065000	2936.6
-31.3414	-7.065000	2933.2
-22.3414	-7.065000	2932.47
-13.3414	-7.065000	2934.49
-4.341423	-7.065000	2916.58
4.658577	-7.065000	2934.72
13.6586	-7.065000	2932.21
22.6586	-7.065000	2932.97
-33.3414	-6.065000	2931.93
-24.3414	-6.065000	2935.6
-15.3414	-6.065000	2932.14
-6.341423	-6.065000	2931.99
2.658577	-6.065000	2932.18
11.6586	-6.065000	2932.99
20.6586	-6.065000	2942.54
-35.3414	-5.065000	2932.02
-26.3414	-5.065000	2932.7
-17.3414	-5.065000	2917.41
-8.341423	-5.065000	2930.8
0.658577	-5.065000	2935.73
9.658577	-5.065000	2931.08
18.6586	-5.065000	2933.25
-37.3414	-4.065000	2934.86
-28.3414	-4.065000	2929.11
-19.3414	-4.065000	2937.91
-10.3414	-4.065000	2934
-1.341423	-4.065000	2934.53
7.658577	-4.065000	2931.44
16.6586	-4.065000	2933.73
-39.3414	-3.065000	2955.02
-30.3414	-3.065000	2934.82
-21.3414	-3.065000	2931.06
-12.3414	-3.065000	2932.34
-3.341423	-3.065000	2927.79
5.658577	-3.065000	2933.47
14.6586	-3.065000	2930
23.6586	-3.065000	2940.82
-32.3414	-2.065000	2918.79
-23.3414	-2.065000	2935.87
-14.3414	-2.065000	2933.36
-5.341423	-2.065000	2934.26
3.658577	-2.065000	2930.11
12.6586	-2.065000	2928.57
21.6586	-2.065000	2942.65
-34.3414	-1.065000	2949.08
-25.3414	-1.065000	2931.67
-16.3414	-1.065000	2941.01
-7.341423	-1.065000	2934.67
1.658577	-1.065000	2928.9
10.6586	-1.065000	2932.93
19.6586	-1.065000	2932.93
-36.3414	-0.065000	2926.08
-27.3414	-0.065000	2912.89
-18.3414	-0.065000	2936.52
-9.341423	-0.065000	2937.71
-0.341423	-0.065000	2935.09
8.658577	-0.065000	2932.21
17.6586	-0.065000	2933.8
-38.3414	0.935000	2940.24
-29.3414	0.935000	2940.9
-20.3414	0.935000	2936.41
-11.3414	0.935000	2936.82
-2.341423	0.935000	2931.93
6.658577	0.935000	2935.08
15.6586	0.935000	2932.38
24.6586	0.935000	2936.17
-31.3414	1.935000	2936.4
-22.3414	1.935000	2935.69
-13.3414	1.935000	2933.36
-4.341423	1.935000	2935.15
4.658577	1.935000	2937.18
13.6586	1.935000	2934.95
22.6586	1.935000	2930.51
-33.3414	2.935000	2937.54
-24.3414	2.935000	2931.25
-15.3414	2.935000	2932.58
-6.341423	2.935000	2931.87
2.658577	2.935000	2939.97
11.6586	2.935000	2931.66
20.6586	2.935000	2931.07
-35.3414	3.935000	2933.81
-26.3414	3.935000	2929.95
-17.3414	3.935000	2930.02
-8.341423	3.935000	2939.22
0.658577	3.935000	2932.49
9.658577	3.935000	2931.94
18.6586	3.935000	2933.47
-37.3414	4.935000	2938.6
-28.3414	4.935000	2934.3
-19.3414	4.935000	2930.71
-10.3414	4.935000	2936.58
-1.341423	4.935000	2931.85
7.658577	4.935000	2931.98
16.6586	4.935000	2933.33
-39.3414	5.935000	2935.24
-30.3414	5.935000	2932.94
-21.3414	5.935000	2928.16
-12.3414	5.935000	2931.02
-3.341423	5.935000	2931.12
5.658577	5.935000	2934.75
14.6586	5.935000	2931.14
23.6586	5.935000	2931.03
-32.3414	6.935000	2932.17
-23.3414	6.935000	2933.64
-14.3414	6.935000	2931.99
-5.341423	6.935000	2930.34
3.658577	6.935000	2937.37
12.6586	6.935000	2932.43
21.6586	6.935000	2929.89
-34.3414	7.935000	2931.01
-25.3414	7.935000	2934.65
-16.3414	7.935000	2932.07
-7.341423	7.935000	2939.31
1.658577	7.935000	2932.84
10.6586	7.935000	2936.03
19.6586	7.935000	2929.05
-36.3414	8.935000	2930.69
-27.3414	8.935000	2936.52
-18.3414	8.935000	2932.63
-9.341423	8.935000	2937.55
-0.341423	8.935000	2934.31
8.658577	8.935000	2934.72
17.6586	8.935000	2930.96
-38.3414	9.935000	2926.9
-29.3414	9.935000	2929.13
-20.3414	9.935000	2936.67
-11.3414	9.935000	2934.59
-2.341423	9.935000	2936.54
6.658577	9.935000	2931.58
15.6586	9.935000	2900
24.6586	9.935000	2926.84
-31.3414	10.935	2931.6
-22.3414	10.935	2932.68
-13.3414	10.935	2934.64
-4.341423	10.935	2931.33
4.658577	10.935	2937.35
13.6586	10.935	2928.09
22.6586	10.935	2930.24
-33.3414	11.935	2930.27
-24.3414	11.935	2934.46
-15.3414	11.935	2934.45
-6.341423	11.935	2937.16
2.658577	11.935	2934.54
11.6586	11.935	2934.87
20.6586	11.935	2933.76
-35.3414	12.935	2932.54
-26.3414	12.935	2935.34
-17.3414	12.935	2936.73
-8.341423	12.935	2938.99
0.658577	12.935	2936.74
9.658577	12.935	2933.22
18.6586	12.935	2919.61
-37.3414	13.935	2931.81
-28.3414	13.935	2936.9
-19.3414	13.935	2929.84
-10.3414	13.935	2931.1
-1.341423	13.935	2932.39
7.658577	13.935	2930.75
16.6586	13.935	2900
-39.3414	14.935	2934.8
-30.3414	14.935	2931.01
-21.3414	14.935	2933.47
-12.3414	14.935	2932.38
-3.341423	14.935	2930.82
5.658577	14.935	2938.68
14.6586	14.935	2924.71
23.6586	14.935	2900
-32.3414	15.935	2932.63
-23.3414	15.935	2915.28
-14.3414	15.935	2935.65
-5.341423	15.935	2942.63
3.658577	15.935	2934.57
12.6586	15.935	2932.03
21.6586	15.935	2923.17
24.6586	15.935	2908.52