File: data/derived_data/raman/20170920_Gr-NH2_for_Radisurf/20170920 Gr-NH for Radisurf map 2/Dp FWHM.txt
#XList		#YList		#IList
-39.3414	-21.065	10.8672
-30.3414	-21.065	24.2239
-21.3414	-21.065	23.9123
-12.3414	-21.065	41.3714
-3.341423	-21.065	0.639823
5.658577	-21.065	30.4129
14.6586	-21.065	19.6452
23.6586	-21.065	1.030707
-32.3414	-20.065	21.5192
-23.3414	-20.065	16.2857
-14.3414	-20.065	39.7848
-5.341423	-20.065	16.3915
3.658577	-20.065	19.6
12.6586	-20.065	16.5289
21.6586	-20.065	26.1546
-34.3414	-19.065	16.1888
-25.3414	-19.065	21.5203
-16.3414	-19.065	37.4528
-7.341423	-19.065	14.9372
1.658577	-19.065	16.0259
10.6586	-19.065	83.9702
19.6586	-19.065	22.6379
-36.3414	-18.065	16.6186
-27.3414	-18.065	16.7111
-18.3414	-18.065	29.0918
-9.341423	-18.065	161.333
-0.341423	-18.065	15.5022
8.658577	-18.065	37.1215
17.6586	-18.065	16.9179
-38.3414	-17.065	26.8907
-29.3414	-17.065	43.1009
-20.3414	-17.065	30.964
-11.3414	-17.065	26.062
-2.341423	-17.065	14.9306
6.658577	-17.065	20.743
15.6586	-17.065	29.57
24.6586	-17.065	31.7282
-31.3414	-16.065	40.9229
-22.3414	-16.065	18.7895
-13.3414	-16.065	37.5022
-4.341423	-16.065	19.9839
4.658577	-16.065	20.9441
13.6586	-16.065	20.2135
22.6586	-16.065	29.5244
-33.3414	-15.065	34.6306
-24.3414	-15.065	42.8744
-15.3414	-15.065	39.6601
-6.341423	-15.065	19.1238
2.658577	-15.065	17.5526
11.6586	-15.065	29.6614
20.6586	-15.065	21.2265
-35.3414	-14.065	35.2303
-26.3414	-14.065	30.8006
-17.3414	-14.065	28.1952
-8.341423	-14.065	14.03
0.658577	-14.065	19.2091
9.658577	-14.065	39.4681
18.6586	-14.065	18.5674
-37.3414	-13.065	35.0861
-28.3414	-13.065	43.5923
-19.3414	-13.065	16.0265
-10.3414	-13.065	9.373230
-1.341423	-13.065	22.7344
7.658577	-13.065	38.8469
16.6586	-13.065	33.7489
-39.3414	-12.065	38.8509
-30.3414	-12.065	36.3001
-21.3414	-12.065	17.8343
-12.3414	-12.065	15.5459
-3.341423	-12.065	19.6221
5.658577	-12.065	19.144
14.6586	-12.065	17.004
23.6586	-12.065	18.6799
-32.3414	-11.065	36.2365
-23.3414	-11.065	26.5551
-14.3414	-11.065	26.7255
-5.341423	-11.065	17.3227
3.658577	-11.065	45.3895
12.6586	-11.065	19.8309
21.6586	-11.065	60.3219
-34.3414	-10.065	36.4992
-25.3414	-10.065	35.2141
-16.3414	-10.065	10.8745
-7.341423	-10.065	21.1427
1.658577	-10.065	17.6567
10.6586	-10.065	22.8841
19.6586	-10.065	0.639823
-36.3414	-9.065000	34.7085
-27.3414	-9.065000	36.4875
-18.3414	-9.065000	9.547200
-9.341423	-9.065000	35.9393
-0.341423	-9.065000	22.5895
8.658577	-9.065000	7.923434
17.6586	-9.065000	16.6297
-38.3414	-8.065000	37.3406
-29.3414	-8.065000	37.1027
-20.3414	-8.065000	74.5216
-11.3414	-8.065000	42.93
-2.341423	-8.065000	10.5101
6.658577	-8.065000	39.7615
15.6586	-8.065000	25.3373
24.6586	-8.065000	1.445646
-31.3414	-7.065000	34.9573
-22.3414	-7.065000	11.4404
-13.3414	-7.065000	40.427
-4.341423	-7.065000	23.7935
4.658577	-7.065000	14.7692
13.6586	-7.065000	34.3653
22.6586	-7.065000	15.8759
-33.3414	-6.065000	34.4798
-24.3414	-6.065000	34.5559
-15.3414	-6.065000	38.0513
-6.341423	-6.065000	35.7969
2.658577	-6.065000	29.3494
11.6586	-6.065000	25.7767
20.6586	-6.065000	27.3704
-35.3414	-5.065000	38.8362
-26.3414	-5.065000	27.6951
-17.3414	-5.065000	30.3024
-8.341423	-5.065000	38.456
0.658577	-5.065000	19.7652
9.658577	-5.065000	30.3809
18.6586	-5.065000	18.583
-37.3414	-4.065000	15.2226
-28.3414	-4.065000	38.2016
-19.3414	-4.065000	36.5894
-10.3414	-4.065000	164.958
-1.341423	-4.065000	33.968
7.658577	-4.065000	32.5039
16.6586	-4.065000	30.0706
-39.3414	-3.065000	0.639823
-30.3414	-3.065000	32.9858
-21.3414	-3.065000	21.3641
-12.3414	-3.065000	255.375
-3.341423	-3.065000	20.8023
5.658577	-3.065000	22.2291
14.6586	-3.065000	33.0126
23.6586	-3.065000	13.6746
-32.3414	-2.065000	2.058521
-23.3414	-2.065000	1.180977
-14.3414	-2.065000	36.8682
-5.341423	-2.065000	17.4311
3.658577	-2.065000	33.8672
12.6586	-2.065000	21.1367
21.6586	-2.065000	0.639823
-34.3414	-1.065000	21.2495
-25.3414	-1.065000	41.2249
-16.3414	-1.065000	19.3491
-7.341423	-1.065000	13.6911
1.658577	-1.065000	32.1207
10.6586	-1.065000	14.4509
19.6586	-1.065000	17.5935
-36.3414	-0.065000	32.9499
-27.3414	-0.065000	23.2578
-18.3414	-0.065000	22.6197
-9.341423	-0.065000	15.9824
-0.341423	-0.065000	39.4261
8.658577	-0.065000	39.0672
17.6586	-0.065000	17.2893
-38.3414	0.935000	18.4712
-29.3414	0.935000	4.669631
-20.3414	0.935000	37.313
-11.3414	0.935000	38.2309
-2.341423	0.935000	25.5308
6.658577	0.935000	24.9484
15.6586	0.935000	32.3572
24.6586	0.935000	12.515
-31.3414	1.935000	13.7729
-22.3414	1.935000	40.7118
-13.3414	1.935000	36.444
-4.341423	1.935000	37.6597
4.658577	1.935000	20.5495
13.6586	1.935000	28.7229
22.6586	1.935000	37.3173
-33.3414	2.935000	20.115
-24.3414	2.935000	37.9777
-15.3414	2.935000	33.0023
-6.341423	2.935000	17.4596
2.658577	2.935000	17.0086
11.6586	2.935000	1.691890
20.6586	2.935000	28.0387
-35.3414	3.935000	16.3368
-26.3414	3.935000	22.5768
-17.3414	3.935000	39.3085
-8.341423	3.935000	21.9067
0.658577	3.935000	38.5516
9.658577	3.935000	38.8426
18.6586	3.935000	37.9874
-37.3414	4.935000	32.1562
-28.3414	4.935000	27.1162
-19.3414	4.935000	39.2489
-10.3414	4.935000	14.2327
-1.341423	4.935000	38.642
7.658577	4.935000	21.9894
16.6586	4.935000	24.3766
-39.3414	5.935000	35.8255
-30.3414	5.935000	16.8135
-21.3414	5.935000	18.2216
-12.3414	5.935000	40.3581
-3.341423	5.935000	38.6277
5.658577	5.935000	20.9147
14.6586	5.935000	25.0103
23.6586	5.935000	40.1045
-32.3414	6.935000	37.0102
-23.3414	6.935000	17.234
-14.3414	6.935000	38.839
-5.341423	6.935000	19.4897
3.658577	6.935000	21.7169
12.6586	6.935000	31.4599
21.6586	6.935000	35.7876
-34.3414	7.935000	38.398
-25.3414	7.935000	19.7104
-16.3414	7.935000	31.1487
-7.341423	7.935000	13.3542
1.658577	7.935000	25.9288
10.6586	7.935000	27.4861
19.6586	7.935000	38.1552
-36.3414	8.935000	36.0671
-27.3414	8.935000	17.9297
-18.3414	8.935000	24.6486
-9.341423	8.935000	12.669
-0.341423	8.935000	39.4842
8.658577	8.935000	25.6751
17.6586	8.935000	29.9987
-38.3414	9.935000	34.2491
-29.3414	9.935000	154.928
-20.3414	9.935000	21.3333
-11.3414	9.935000	13.2878
-2.341423	9.935000	26.8814
6.658577	9.935000	36.5378
15.6586	9.935000	0.639823
24.6586	9.935000	41.2959
-31.3414	10.935	35.4258
-22.3414	10.935	24.9723
-13.3414	10.935	28.6316
-4.341423	10.935	40.8392
4.658577	10.935	33.4759
13.6586	10.935	17.4717
22.6586	10.935	40.0528
-33.3414	11.935	112.714
-24.3414	11.935	16.1357
-15.3414	11.935	84.0092
-6.341423	11.935	18.1376
2.658577	11.935	18.1303
11.6586	11.935	19.9416
20.6586	11.935	22.8206
-35.3414	12.935	38.584
-26.3414	12.935	11.987
-17.3414	12.935	13.6539
-8.341423	12.935	19.2445
0.658577	12.935	23.1142
9.658577	12.935	5.494329
18.6586	12.935	0.639823
-37.3414	13.935	39.9289
-28.3414	13.935	16.8824
-19.3414	13.935	41.6745
-10.3414	13.935	30.9005
-1.341423	13.935	17.4315
7.658577	13.935	40.9111
16.6586	13.935	63.7573
-39.3414	14.935	35.4185
-30.3414	14.935	38.0467
-21.3414	14.935	34.1268
-12.3414	14.935	41.4017
-3.341423	14.935	30.0846
5.658577	14.935	30.3986
14.6586	14.935	0.762961
23.6586	14.935	22.15
-32.3414	15.935	35.2789
-23.3414	15.935	5.298223
-14.3414	15.935	38.4489
-5.341423	15.935	21.7253
3.658577	15.935	28.7531
12.6586	15.935	32.6557
21.6586	15.935	56.2311
24.6586	15.935	3.158348