File: data/derived_data/raman/20170920_Gr-NH2_for_Radisurf/20170920 Gr-NH for Radisurf map 2/Dp int.txt
#XList		#YList		#IList
-39.3414	-21.065	48.5242
-30.3414	-21.065	337.44
-21.3414	-21.065	102.964
-12.3414	-21.065	695.346
-3.341423	-21.065	7.391188
5.658577	-21.065	49.2658
14.6586	-21.065	245.542
23.6586	-21.065	1.184633
-32.3414	-20.065	304.633
-23.3414	-20.065	46.7946
-14.3414	-20.065	735.609
-5.341423	-20.065	133.208
3.658577	-20.065	49.6575
12.6586	-20.065	185.549
21.6586	-20.065	160.388
-34.3414	-19.065	12.0666
-25.3414	-19.065	186.57
-16.3414	-19.065	947.162
-7.341423	-19.065	186.556
1.658577	-19.065	38.6881
10.6586	-19.065	107.19
19.6586	-19.065	221.103
-36.3414	-18.065	84.7333
-27.3414	-18.065	172.739
-18.3414	-18.065	223.379
-9.341423	-18.065	0.000000
-0.341423	-18.065	80.8433
8.658577	-18.065	693.245
17.6586	-18.065	152.34
-38.3414	-17.065	293.156
-29.3414	-17.065	390.518
-20.3414	-17.065	83.5019
-11.3414	-17.065	320.715
-2.341423	-17.065	63.1049
6.658577	-17.065	185.676
15.6586	-17.065	434.05
24.6586	-17.065	424.023
-31.3414	-16.065	391.728
-22.3414	-16.065	202.788
-13.3414	-16.065	878.31
-4.341423	-16.065	149.81
4.658577	-16.065	52.2265
13.6586	-16.065	50.0379
22.6586	-16.065	203.654
-33.3414	-15.065	708.518
-24.3414	-15.065	399.673
-15.3414	-15.065	696.151
-6.341423	-15.065	117.893
2.658577	-15.065	71.1203
11.6586	-15.065	395.179
20.6586	-15.065	55.5471
-35.3414	-14.065	629.995
-26.3414	-14.065	286.69
-17.3414	-14.065	165.401
-8.341423	-14.065	44.0519
0.658577	-14.065	152.004
9.658577	-14.065	473.943
18.6586	-14.065	34.3548
-37.3414	-13.065	723.084
-28.3414	-13.065	416.863
-19.3414	-13.065	96.7198
-10.3414	-13.065	88.8325
-1.341423	-13.065	102.764
7.658577	-13.065	655.024
16.6586	-13.065	138.307
-39.3414	-12.065	566.824
-30.3414	-12.065	521.202
-21.3414	-12.065	58.4328
-12.3414	-12.065	144.491
-3.341423	-12.065	122.686
5.658577	-12.065	52.6009
14.6586	-12.065	118.652
23.6586	-12.065	131.578
-32.3414	-11.065	511.023
-23.3414	-11.065	197.604
-14.3414	-11.065	80.6709
-5.341423	-11.065	69.8886
3.658577	-11.065	33.7843
12.6586	-11.065	12.8526
21.6586	-11.065	58.7285
-34.3414	-10.065	576.785
-25.3414	-10.065	446.517
-16.3414	-10.065	83.3039
-7.341423	-10.065	24.3719
1.658577	-10.065	132.203
10.6586	-10.065	2.539633
19.6586	-10.065	0.000000
-36.3414	-9.065000	567.974
-27.3414	-9.065000	659.508
-18.3414	-9.065000	30.4143
-9.341423	-9.065000	189.357
-0.341423	-9.065000	147.689
8.658577	-9.065000	12.1823
17.6586	-9.065000	109.382
-38.3414	-8.065000	481.075
-29.3414	-8.065000	548.774
-20.3414	-8.065000	108.89
-11.3414	-8.065000	478.13
-2.341423	-8.065000	21.9934
6.658577	-8.065000	471.79
15.6586	-8.065000	152.069
24.6586	-8.065000	0.000000
-31.3414	-7.065000	592.907
-22.3414	-7.065000	41.4483
-13.3414	-7.065000	347.307
-4.341423	-7.065000	11.2173
4.658577	-7.065000	129.268
13.6586	-7.065000	385.267
22.6586	-7.065000	99.3329
-33.3414	-6.065000	660.857
-24.3414	-6.065000	685.417
-15.3414	-6.065000	624.497
-6.341423	-6.065000	259.174
2.658577	-6.065000	109.608
11.6586	-6.065000	190.893
20.6586	-6.065000	85.5086
-35.3414	-5.065000	482.693
-26.3414	-5.065000	300.98
-17.3414	-5.065000	13.4823
-8.341423	-5.065000	484.02
0.658577	-5.065000	117.569
9.658577	-5.065000	71.3182
18.6586	-5.065000	103.846
-37.3414	-4.065000	189.26
-28.3414	-4.065000	323.523
-19.3414	-4.065000	216.195
-10.3414	-4.065000	0.000000
-1.341423	-4.065000	39.1693
7.658577	-4.065000	421.391
16.6586	-4.065000	253.723
-39.3414	-3.065000	11.3613
-30.3414	-3.065000	715.48
-21.3414	-3.065000	297.344
-12.3414	-3.065000	0.000000
-3.341423	-3.065000	43.3887
5.658577	-3.065000	136.147
14.6586	-3.065000	688.894
23.6586	-3.065000	55.2352
-32.3414	-2.065000	8.120141
-23.3414	-2.065000	174.003
-14.3414	-2.065000	604.245
-5.341423	-2.065000	168.951
3.658577	-2.065000	182.665
12.6586	-2.065000	238.368
21.6586	-2.065000	4.753697
-34.3414	-1.065000	32.0478
-25.3414	-1.065000	535.153
-16.3414	-1.065000	124.875
-7.341423	-1.065000	86.2164
1.658577	-1.065000	651.651
10.6586	-1.065000	150.37
19.6586	-1.065000	180.423
-36.3414	-0.065000	12.2912
-27.3414	-0.065000	5.164780
-18.3414	-0.065000	238.574
-9.341423	-0.065000	63.0705
-0.341423	-0.065000	777.696
8.658577	-0.065000	365.88
17.6586	-0.065000	149.723
-38.3414	0.935000	6.411115
-29.3414	0.935000	6.145000
-20.3414	0.935000	224.87
-11.3414	0.935000	488.637
-2.341423	0.935000	399.438
6.658577	0.935000	375.066
15.6586	0.935000	293.458
24.6586	0.935000	73.318
-31.3414	1.935000	155.711
-22.3414	1.935000	556.211
-13.3414	1.935000	782.012
-4.341423	1.935000	724.116
4.658577	1.935000	65.7529
13.6586	1.935000	520.909
22.6586	1.935000	578.638
-33.3414	2.935000	61.6952
-24.3414	2.935000	0.000000
-15.3414	2.935000	6.721104
-6.341423	2.935000	174.016
2.658577	2.935000	152.181
11.6586	2.935000	0.000000
20.6586	2.935000	94.2918
-35.3414	3.935000	166.86
-26.3414	3.935000	354.029
-17.3414	3.935000	430.04
-8.341423	3.935000	96.9679
0.658577	3.935000	792.043
9.658577	3.935000	743.305
18.6586	3.935000	749.52
-37.3414	4.935000	641.285
-28.3414	4.935000	163.582
-19.3414	4.935000	598.135
-10.3414	4.935000	155.588
-1.341423	4.935000	673.988
7.658577	4.935000	267.255
16.6586	4.935000	352.472
-39.3414	5.935000	770.575
-30.3414	5.935000	14.786
-21.3414	5.935000	34.1559
-12.3414	5.935000	125.083
-3.341423	5.935000	563.431
5.658577	5.935000	122.168
14.6586	5.935000	410.889
23.6586	5.935000	344.541
-32.3414	6.935000	521.698
-23.3414	6.935000	84.5243
-14.3414	6.935000	489.388
-5.341423	6.935000	96.4997
3.658577	6.935000	46.1935
12.6586	6.935000	552.386
21.6586	6.935000	821.532
-34.3414	7.935000	554.232
-25.3414	7.935000	214.129
-16.3414	7.935000	423.269
-7.341423	7.935000	101.07
1.658577	7.935000	429.129
10.6586	7.935000	416.651
19.6586	7.935000	16.5388
-36.3414	8.935000	582.367
-27.3414	8.935000	200.125
-18.3414	8.935000	216.492
-9.341423	8.935000	91.9328
-0.341423	8.935000	791.466
8.658577	8.935000	101.578
17.6586	8.935000	466.672
-38.3414	9.935000	496.895
-29.3414	9.935000	0.000000
-20.3414	9.935000	183.53
-11.3414	9.935000	55.45
-2.341423	9.935000	307.811
6.658577	9.935000	46.5948
15.6586	9.935000	25.645
24.6586	9.935000	18.5195
-31.3414	10.935	767.412
-22.3414	10.935	219.536
-13.3414	10.935	399.413
-4.341423	10.935	692.906
4.658577	10.935	83.6685
13.6586	10.935	19.7604
22.6586	10.935	333.052
-33.3414	11.935	0.000000
-24.3414	11.935	10.9929
-15.3414	11.935	0.000000
-6.341423	11.935	135.475
2.658577	11.935	113.913
11.6586	11.935	195.114
20.6586	11.935	50.1015
-35.3414	12.935	571.131
-26.3414	12.935	39.5772
-17.3414	12.935	148.154
-8.341423	12.935	107.1
0.658577	12.935	258.72
9.658577	12.935	56.0122
18.6586	12.935	8.190636
-37.3414	13.935	650.37
-28.3414	13.935	165.159
-19.3414	13.935	375.944
-10.3414	13.935	48.8385
-1.341423	13.935	129.312
7.658577	13.935	602.268
16.6586	13.935	6.333269
-39.3414	14.935	761.302
-30.3414	14.935	489.669
-21.3414	14.935	492.152
-12.3414	14.935	477.68
-3.341423	14.935	187.411
5.658577	14.935	83.1031
14.6586	14.935	10.024
23.6586	14.935	12.2941
-32.3414	15.935	582.537
-23.3414	15.935	19.1432
-14.3414	15.935	803.651
-5.341423	15.935	49.943
3.658577	15.935	142.641
12.6586	15.935	231.252
21.6586	15.935	1.302569
24.6586	15.935	0.000000