File: data/derived_data/raman/20170920_Gr-NH2_for_Radisurf/20170920 Gr-NH for Radisurf map 2/Dp pos.txt
#XList		#YList		#IList
-39.3414	-21.065	1620.64
-30.3414	-21.065	1610.69
-21.3414	-21.065	1611.61
-12.3414	-21.065	1600
-3.341423	-21.065	1604.56
5.658577	-21.065	1613.6
14.6586	-21.065	1615.79
23.6586	-21.065	1602.16
-32.3414	-20.065	1611.8
-23.3414	-20.065	1618.54
-14.3414	-20.065	1600.88
-5.341423	-20.065	1618.47
3.658577	-20.065	1616.99
12.6586	-20.065	1618.43
21.6586	-20.065	1612.19
-34.3414	-19.065	1619.49
-25.3414	-19.065	1613.69
-16.3414	-19.065	1601.31
-7.341423	-19.065	1618.85
1.658577	-19.065	1616.53
10.6586	-19.065	1600
19.6586	-19.065	1614.27
-36.3414	-18.065	1616.92
-27.3414	-18.065	1616.1
-18.3414	-18.065	1609.64
-9.341423	-18.065	1600
-0.341423	-18.065	1615.59
8.658577	-18.065	1604.49
17.6586	-18.065	1614.88
-38.3414	-17.065	1610.25
-29.3414	-17.065	1600
-20.3414	-17.065	1610.14
-11.3414	-17.065	1610.54
-2.341423	-17.065	1617.28
6.658577	-17.065	1612.77
15.6586	-17.065	1609.78
24.6586	-17.065	1607.47
-31.3414	-16.065	1600
-22.3414	-16.065	1616.15
-13.3414	-16.065	1602.61
-4.341423	-16.065	1614.41
4.658577	-16.065	1616.45
13.6586	-16.065	1612.85
22.6586	-16.065	1609.71
-33.3414	-15.065	1603.88
-24.3414	-15.065	1600
-15.3414	-15.065	1600
-6.341423	-15.065	1617.13
2.658577	-15.065	1615.71
11.6586	-15.065	1608.61
20.6586	-15.065	1614.82
-35.3414	-14.065	1603.66
-26.3414	-14.065	1608.94
-17.3414	-14.065	1610.33
-8.341423	-14.065	1621.04
0.658577	-14.065	1616.15
9.658577	-14.065	1602.62
18.6586	-14.065	1617.65
-37.3414	-13.065	1603.9
-28.3414	-13.065	1600
-19.3414	-13.065	1616.29
-10.3414	-13.065	1622.09
-1.341423	-13.065	1611.71
7.658577	-13.065	1603.78
16.6586	-13.065	1607.36
-39.3414	-12.065	1601.85
-30.3414	-12.065	1602.09
-21.3414	-12.065	1617.6
-12.3414	-12.065	1618.83
-3.341423	-12.065	1613.37
5.658577	-12.065	1617.99
14.6586	-12.065	1619.09
23.6586	-12.065	1614.68
-32.3414	-11.065	1601.93
-23.3414	-11.065	1611.46
-14.3414	-11.065	1609.24
-5.341423	-11.065	1614.23
3.658577	-11.065	1609.98
12.6586	-11.065	1616.76
21.6586	-11.065	1600
-34.3414	-10.065	1601.51
-25.3414	-10.065	1605.48
-16.3414	-10.065	1618.67
-7.341423	-10.065	1617.19
1.658577	-10.065	1616.19
10.6586	-10.065	1611.65
19.6586	-10.065	1600
-36.3414	-9.065000	1603.88
-27.3414	-9.065000	1603.13
-18.3414	-9.065000	1618.05
-9.341423	-9.065000	1605.33
-0.341423	-9.065000	1613.84
8.658577	-9.065000	1617.63
17.6586	-9.065000	1618.42
-38.3414	-8.065000	1601.47
-29.3414	-8.065000	1600.28
-20.3414	-8.065000	1600
-11.3414	-8.065000	1600
-2.341423	-8.065000	1619.32
6.658577	-8.065000	1603.52
15.6586	-8.065000	1612.48
24.6586	-8.065000	1602.25
-31.3414	-7.065000	1604.63
-22.3414	-7.065000	1618.72
-13.3414	-7.065000	1600
-4.341423	-7.065000	1621.26
4.658577	-7.065000	1617.44
13.6586	-7.065000	1606.52
22.6586	-7.065000	1616.63
-33.3414	-6.065000	1603.64
-24.3414	-6.065000	1606
-15.3414	-6.065000	1602
-6.341423	-6.065000	1603.84
2.658577	-6.065000	1612.38
11.6586	-6.065000	1612.8
20.6586	-6.065000	1614.78
-35.3414	-5.065000	1602.19
-26.3414	-5.065000	1609.64
-17.3414	-5.065000	1611.36
-8.341423	-5.065000	1602.27
0.658577	-5.065000	1615.32
9.658577	-5.065000	1611.46
18.6586	-5.065000	1616.92
-37.3414	-4.065000	1616.57
-28.3414	-4.065000	1604.02
-19.3414	-4.065000	1605.99
-10.3414	-4.065000	1619.42
-1.341423	-4.065000	1607.57
7.658577	-4.065000	1607.43
16.6586	-4.065000	1610.3
-39.3414	-3.065000	1623.46
-30.3414	-3.065000	1606.77
-21.3414	-3.065000	1614.36
-12.3414	-3.065000	1616.38
-3.341423	-3.065000	1611.54
5.658577	-3.065000	1616.46
14.6586	-3.065000	1607.16
23.6586	-3.065000	1621.08
-32.3414	-2.065000	1618.75
-23.3414	-2.065000	1600.51
-14.3414	-2.065000	1603.23
-5.341423	-2.065000	1613.78
3.658577	-2.065000	1607.08
12.6586	-2.065000	1613.65
21.6586	-2.065000	1610.84
-34.3414	-1.065000	1618.02
-25.3414	-1.065000	1600
-16.3414	-1.065000	1617.49
-7.341423	-1.065000	1615.94
1.658577	-1.065000	1607.76
10.6586	-1.065000	1619.49
19.6586	-1.065000	1615.43
-36.3414	-0.065000	1617.45
-27.3414	-0.065000	1616.7
-18.3414	-0.065000	1613.38
-9.341423	-0.065000	1615.8
-0.341423	-0.065000	1602.62
8.658577	-0.065000	1603.53
17.6586	-0.065000	1615.71
-38.3414	0.935000	1617.03
-29.3414	0.935000	1622.59
-20.3414	0.935000	1603.67
-11.3414	0.935000	1601.41
-2.341423	0.935000	1610.13
6.658577	0.935000	1610.07
15.6586	0.935000	1608.1
24.6586	0.935000	1621.46
-31.3414	1.935000	1619.34
-22.3414	1.935000	1600
-13.3414	1.935000	1604.29
-4.341423	1.935000	1603.93
4.658577	1.935000	1619.32
13.6586	1.935000	1608.83
22.6586	1.935000	1604.37
-33.3414	2.935000	1615.79
-24.3414	2.935000	1625.79
-15.3414	2.935000	1619.15
-6.341423	2.935000	1614.63
2.658577	2.935000	1617.9
11.6586	2.935000	1600
20.6586	2.935000	1608.59
-35.3414	3.935000	1616.36
-26.3414	3.935000	1612.73
-17.3414	3.935000	1600.4
-8.341423	3.935000	1615.72
0.658577	3.935000	1603.25
9.658577	3.935000	1603.21
18.6586	3.935000	1604.3
-37.3414	4.935000	1606.82
-28.3414	4.935000	1612.03
-19.3414	4.935000	1600
-10.3414	4.935000	1617.65
-1.341423	4.935000	1600.33
7.658577	4.935000	1613.86
16.6586	4.935000	1612.87
-39.3414	5.935000	1604.23
-30.3414	5.935000	1611.65
-21.3414	5.935000	1615.63
-12.3414	5.935000	1603.01
-3.341423	5.935000	1604.87
5.658577	5.935000	1613.73
14.6586	5.935000	1611.44
23.6586	5.935000	1600
-32.3414	6.935000	1602.18
-23.3414	6.935000	1613.84
-14.3414	6.935000	1601.53
-5.341423	6.935000	1613.13
3.658577	6.935000	1611.19
12.6586	6.935000	1608.19
21.6586	6.935000	1605.78
-34.3414	7.935000	1601.3
-25.3414	7.935000	1615.64
-16.3414	7.935000	1608.63
-7.341423	7.935000	1619.53
1.658577	7.935000	1610.98
10.6586	7.935000	1611.08
19.6586	7.935000	1612.44
-36.3414	8.935000	1602.31
-27.3414	8.935000	1617.06
-18.3414	8.935000	1613.13
-9.341423	8.935000	1621.46
-0.341423	8.935000	1602.81
8.658577	8.935000	1616.99
17.6586	8.935000	1608.22
-38.3414	9.935000	1603.59
-29.3414	9.935000	1625.26
-20.3414	9.935000	1614.21
-11.3414	9.935000	1617.74
-2.341423	9.935000	1611.59
6.658577	9.935000	1612.85
15.6586	9.935000	1618.95
24.6586	9.935000	1600
-31.3414	10.935	1604.11
-22.3414	10.935	1612.95
-13.3414	10.935	1609.52
-4.341423	10.935	1600
4.658577	10.935	1613.72
13.6586	10.935	1613.99
22.6586	10.935	1603.04
-33.3414	11.935	1612.83
-24.3414	11.935	1617.53
-15.3414	11.935	1612.85
-6.341423	11.935	1617.41
2.658577	11.935	1617.69
11.6586	11.935	1614.85
20.6586	11.935	1614.96
-35.3414	12.935	1601.2
-26.3414	12.935	1619.79
-17.3414	12.935	1620.61
-8.341423	12.935	1617.24
0.658577	12.935	1612.2
9.658577	12.935	1600.75
18.6586	12.935	1632.48
-37.3414	13.935	1601.28
-28.3414	13.935	1617.7
-19.3414	13.935	1600
-10.3414	13.935	1608.89
-1.341423	13.935	1615.13
7.658577	13.935	1600.57
16.6586	13.935	1623.4
-39.3414	14.935	1604.04
-30.3414	14.935	1603.59
-21.3414	14.935	1606.8
-12.3414	14.935	1601.05
-3.341423	14.935	1608.64
5.658577	14.935	1609.93
14.6586	14.935	1618.55
23.6586	14.935	1636.97
-32.3414	15.935	1605.22
-23.3414	15.935	1621.93
-14.3414	15.935	1603.29
-5.341423	15.935	1615.64
3.658577	15.935	1610.94
12.6586	15.935	1609.05
21.6586	15.935	1640
24.6586	15.935	1618.68