File: data/derived_data/raman/20170920_Gr-NH2_for_Radisurf/20170920 Gr-NH for Radisurf map 2/G FWHM.txt
#XList		#YList		#IList
-39.3414	-21.065	49.0466
-30.3414	-21.065	61.4001
-21.3414	-21.065	65.2321
-12.3414	-21.065	77.0946
-3.341423	-21.065	79.7675
5.658577	-21.065	24.3453
14.6586	-21.065	62.1573
23.6586	-21.065	2.227608
-32.3414	-20.065	61.5755
-23.3414	-20.065	52.9116
-14.3414	-20.065	79.4097
-5.341423	-20.065	44.0208
3.658577	-20.065	34.9338
12.6586	-20.065	57.6765
21.6586	-20.065	62.9166
-34.3414	-19.065	67.5337
-25.3414	-19.065	60.8926
-16.3414	-19.065	74.5501
-7.341423	-19.065	57.3716
1.658577	-19.065	37.5499
10.6586	-19.065	23.7525
19.6586	-19.065	63.6043
-36.3414	-18.065	52.4537
-27.3414	-18.065	61.7094
-18.3414	-18.065	63.8133
-9.341423	-18.065	58.5264
-0.341423	-18.065	52.2742
8.658577	-18.065	73.1144
17.6586	-18.065	56.8448
-38.3414	-17.065	65.9388
-29.3414	-17.065	76.8606
-20.3414	-17.065	66.9253
-11.3414	-17.065	64.7696
-2.341423	-17.065	59.8221
6.658577	-17.065	59.4078
15.6586	-17.065	64.5259
24.6586	-17.065	64.6973
-31.3414	-16.065	82.2896
-22.3414	-16.065	58.911
-13.3414	-16.065	72.9671
-4.341423	-16.065	56.4454
4.658577	-16.065	32.6409
13.6586	-16.065	71.731
22.6586	-16.065	65.3925
-33.3414	-15.065	76.5023
-24.3414	-15.065	75.2553
-15.3414	-15.065	76.3514
-6.341423	-15.065	57.9411
2.658577	-15.065	54.1224
11.6586	-15.065	68.7455
20.6586	-15.065	64.0292
-35.3414	-14.065	76.0402
-26.3414	-14.065	65.1156
-17.3414	-14.065	67.2462
-8.341423	-14.065	48.8956
0.658577	-14.065	55.8438
9.658577	-14.065	76.2382
18.6586	-14.065	59.3337
-37.3414	-13.065	77.5725
-28.3414	-13.065	77.0215
-19.3414	-13.065	45.3045
-10.3414	-13.065	55.3983
-1.341423	-13.065	60.0527
7.658577	-13.065	71.3482
16.6586	-13.065	67.558
-39.3414	-12.065	77.4307
-30.3414	-12.065	78.2658
-21.3414	-12.065	38.9765
-12.3414	-12.065	54.7999
-3.341423	-12.065	61.8523
5.658577	-12.065	41.8321
14.6586	-12.065	60.4325
23.6586	-12.065	56.0064
-32.3414	-11.065	79.3898
-23.3414	-11.065	63.95
-14.3414	-11.065	67.7909
-5.341423	-11.065	49.3616
3.658577	-11.065	24.6227
12.6586	-11.065	73.3481
21.6586	-11.065	19.212
-34.3414	-10.065	79.3929
-25.3414	-10.065	68.1418
-16.3414	-10.065	56.0502
-7.341423	-10.065	42.0857
1.658577	-10.065	60.36
10.6586	-10.065	6.311968
19.6586	-10.065	28.4188
-36.3414	-9.065000	78.7425
-27.3414	-9.065000	73.5799
-18.3414	-9.065000	49.3956
-9.341423	-9.065000	73.765
-0.341423	-9.065000	61.2993
8.658577	-9.065000	68.9327
17.6586	-9.065000	44.9375
-38.3414	-8.065000	80.2893
-29.3414	-8.065000	78.5168
-20.3414	-8.065000	14.7677
-11.3414	-8.065000	77.6902
-2.341423	-8.065000	46.6709
6.658577	-8.065000	73.9696
15.6586	-8.065000	63.8452
24.6586	-8.065000	66.6569
-31.3414	-7.065000	72.4693
-22.3414	-7.065000	51.5854
-13.3414	-7.065000	82.6506
-4.341423	-7.065000	47.1658
4.658577	-7.065000	62.7817
13.6586	-7.065000	68.4002
22.6586	-7.065000	41.63
-33.3414	-6.065000	79.5771
-24.3414	-6.065000	67.5909
-15.3414	-6.065000	72.4944
-6.341423	-6.065000	77.1709
2.658577	-6.065000	69.4269
11.6586	-6.065000	62.449
20.6586	-6.065000	22.303
-35.3414	-5.065000	76.422
-26.3414	-5.065000	65.4041
-17.3414	-5.065000	78.7018
-8.341423	-5.065000	73.8164
0.658577	-5.065000	59.878
9.658577	-5.065000	61.7707
18.6586	-5.065000	35.2765
-37.3414	-4.065000	58.7213
-28.3414	-4.065000	70.2493
-19.3414	-4.065000	68.9042
-10.3414	-4.065000	68.7159
-1.341423	-4.065000	78.418
7.658577	-4.065000	68.2447
16.6586	-4.065000	68.3198
-39.3414	-3.065000	225.576
-30.3414	-3.065000	67.9553
-21.3414	-3.065000	66.6179
-12.3414	-3.065000	69.8345
-3.341423	-3.065000	61.9649
5.658577	-3.065000	36.2453
14.6586	-3.065000	68.3752
23.6586	-3.065000	33.123
-32.3414	-2.065000	64.21
-23.3414	-2.065000	70.6134
-14.3414	-2.065000	72.9894
-5.341423	-2.065000	59.1076
3.658577	-2.065000	68.4557
12.6586	-2.065000	62.0875
21.6586	-2.065000	89.9833
-34.3414	-1.065000	37.4128
-25.3414	-1.065000	72.1907
-16.3414	-1.065000	36.3925
-7.341423	-1.065000	51.8624
1.658577	-1.065000	69.3759
10.6586	-1.065000	56.9084
19.6586	-1.065000	54.7135
-36.3414	-0.065000	18.4092
-27.3414	-0.065000	569.66
-18.3414	-0.065000	62.2126
-9.341423	-0.065000	59.0732
-0.341423	-0.065000	74.0553
8.658577	-0.065000	72.4348
17.6586	-0.065000	60.631
-38.3414	0.935000	16.1697
-29.3414	0.935000	54.4856
-20.3414	0.935000	73.0896
-11.3414	0.935000	74.0893
-2.341423	0.935000	63.5035
6.658577	0.935000	64.9364
15.6586	0.935000	68.3613
24.6586	0.935000	45.0599
-31.3414	1.935000	59.4908
-22.3414	1.935000	78.3081
-13.3414	1.935000	73.0239
-4.341423	1.935000	71.5997
4.658577	1.935000	51.143
13.6586	1.935000	64.579
22.6586	1.935000	70.2268
-33.3414	2.935000	51.9224
-24.3414	2.935000	54.0535
-15.3414	2.935000	56.973
-6.341423	2.935000	66.189
2.658577	2.935000	51.4878
11.6586	2.935000	64.8311
20.6586	2.935000	74.5185
-35.3414	3.935000	56.7979
-26.3414	3.935000	62.9813
-17.3414	3.935000	76.0617
-8.341423	3.935000	38.4487
0.658577	3.935000	75.0851
9.658577	3.935000	68.9685
18.6586	3.935000	72.6076
-37.3414	4.935000	69.2386
-28.3414	4.935000	61.1182
-19.3414	4.935000	78.0495
-10.3414	4.935000	53.6763
-1.341423	4.935000	83.78
7.658577	4.935000	61.5253
16.6586	4.935000	63.0093
-39.3414	5.935000	72.8668
-30.3414	5.935000	72.51
-21.3414	5.935000	58.1492
-12.3414	5.935000	81.0184
-3.341423	5.935000	71.2678
5.658577	5.935000	60.6619
14.6586	5.935000	63.0599
23.6586	5.935000	76.8558
-32.3414	6.935000	74.0691
-23.3414	6.935000	57.8073
-14.3414	6.935000	71.5181
-5.341423	6.935000	63.4029
3.658577	6.935000	68.6384
12.6586	6.935000	66.3517
21.6586	6.935000	69.3561
-34.3414	7.935000	77.8563
-25.3414	7.935000	55.795
-16.3414	7.935000	67.9635
-7.341423	7.935000	44.5497
1.658577	7.935000	65.1669
10.6586	7.935000	64.1941
19.6586	7.935000	73.5257
-36.3414	8.935000	80.0992
-27.3414	8.935000	56.3911
-18.3414	8.935000	65.468
-9.341423	8.935000	45.9477
-0.341423	8.935000	72.8739
8.658577	8.935000	28.5354
17.6586	8.935000	67.798
-38.3414	9.935000	80.092
-29.3414	9.935000	70.204
-20.3414	9.935000	59.337
-11.3414	9.935000	57.6901
-2.341423	9.935000	64.0927
6.658577	9.935000	22.4314
15.6586	9.935000	98.0026
24.6586	9.935000	119.385
-31.3414	10.935	73.5303
-22.3414	10.935	63.8003
-13.3414	10.935	67.6347
-4.341423	10.935	72.7849
4.658577	10.935	23.9714
13.6586	10.935	64.3222
22.6586	10.935	74.0987
-33.3414	11.935	74.8447
-24.3414	11.935	76.0959
-15.3414	11.935	70.1337
-6.341423	11.935	58.1776
2.658577	11.935	57.5757
11.6586	11.935	60.0206
20.6586	11.935	67.7916
-35.3414	12.935	81.0084
-26.3414	12.935	59.2302
-17.3414	12.935	58.0133
-8.341423	12.935	31.5899
0.658577	12.935	63.5729
9.658577	12.935	69.1345
18.6586	12.935	24.1446
-37.3414	13.935	73.8248
-28.3414	13.935	59.2619
-19.3414	13.935	74.7996
-10.3414	13.935	68.8562
-1.341423	13.935	52.5774
7.658577	13.935	71.959
16.6586	13.935	102.788
-39.3414	14.935	78.1179
-30.3414	14.935	73.2501
-21.3414	14.935	69.0323
-12.3414	14.935	72.6955
-3.341423	14.935	64.1973
5.658577	14.935	71.3357
14.6586	14.935	25.6221
23.6586	14.935	135.7
-32.3414	15.935	76.8287
-23.3414	15.935	72.0626
-14.3414	15.935	75.2684
-5.341423	15.935	25.7887
3.658577	15.935	67.7234
12.6586	15.935	65.6107
21.6586	15.935	570.749
24.6586	15.935	0.827329