File: data/derived_data/raman/20170920_Gr-NH2_for_Radisurf/20170920 Gr-NH for Radisurf map 2/G int.txt
#XList		#YList		#IList
-39.3414	-21.065	246.077
-30.3414	-21.065	863.819
-21.3414	-21.065	222.282
-12.3414	-21.065	619.375
-3.341423	-21.065	63.4104
5.658577	-21.065	400.482
14.6586	-21.065	613.526
23.6586	-21.065	13.0095
-32.3414	-20.065	901.574
-23.3414	-20.065	208.384
-14.3414	-20.065	653.602
-5.341423	-20.065	581.452
3.658577	-20.065	292.092
12.6586	-20.065	576
21.6586	-20.065	329.317
-34.3414	-19.065	48.4805
-25.3414	-19.065	595.21
-16.3414	-19.065	854.549
-7.341423	-19.065	679.034
1.658577	-19.065	230.396
10.6586	-19.065	418.741
19.6586	-19.065	648.969
-36.3414	-18.065	338.792
-27.3414	-18.065	587.84
-18.3414	-18.065	399.254
-9.341423	-18.065	661.669
-0.341423	-18.065	356.977
8.658577	-18.065	661.798
17.6586	-18.065	537.915
-38.3414	-17.065	646.288
-29.3414	-17.065	311.808
-20.3414	-17.065	152.936
-11.3414	-17.065	626.207
-2.341423	-17.065	334.759
6.658577	-17.065	491.574
15.6586	-17.065	701.318
24.6586	-17.065	517.201
-31.3414	-16.065	365.575
-22.3414	-16.065	655.305
-13.3414	-16.065	852.604
-4.341423	-16.065	547.573
4.658577	-16.065	302.814
13.6586	-16.065	99.7499
22.6586	-16.065	342.319
-33.3414	-15.065	835.045
-24.3414	-15.065	334.267
-15.3414	-15.065	683.343
-6.341423	-15.065	393.171
2.658577	-15.065	263.075
11.6586	-15.065	580.405
20.6586	-15.065	134.814
-35.3414	-14.065	702.314
-26.3414	-14.065	569.185
-17.3414	-14.065	271.584
-8.341423	-14.065	227.612
0.658577	-14.065	508.946
9.658577	-14.065	496.857
18.6586	-14.065	160.39
-37.3414	-13.065	785.752
-28.3414	-13.065	333.776
-19.3414	-13.065	340.207
-10.3414	-13.065	367.977
-1.341423	-13.065	329.296
7.658577	-13.065	574.205
16.6586	-13.065	149.192
-39.3414	-12.065	581.382
-30.3414	-12.065	609.125
-21.3414	-12.065	280.631
-12.3414	-12.065	512.9
-3.341423	-12.065	405.932
5.658577	-12.065	324.159
14.6586	-12.065	400.002
23.6586	-12.065	585.513
-32.3414	-11.065	572.602
-23.3414	-11.065	609.831
-14.3414	-11.065	173.956
-5.341423	-11.065	231.877
3.658577	-11.065	201.614
12.6586	-11.065	44.811
21.6586	-11.065	396.748
-34.3414	-10.065	631.557
-25.3414	-10.065	498.767
-16.3414	-10.065	390.584
-7.341423	-10.065	139.071
1.658577	-10.065	481.293
10.6586	-10.065	3.890246
19.6586	-10.065	467.611
-36.3414	-9.065000	694.656
-27.3414	-9.065000	734.462
-18.3414	-9.065000	216.566
-9.341423	-9.065000	211.052
-0.341423	-9.065000	401.468
8.658577	-9.065000	31.2181
17.6586	-9.065000	563.517
-38.3414	-8.065000	493.409
-29.3414	-8.065000	585.827
-20.3414	-8.065000	456.473
-11.3414	-8.065000	438.477
-2.341423	-8.065000	105.896
6.658577	-8.065000	414.877
15.6586	-8.065000	317.039
24.6586	-8.065000	49.8392
-31.3414	-7.065000	679.119
-22.3414	-7.065000	114.051
-13.3414	-7.065000	325.692
-4.341423	-7.065000	33.4501
4.658577	-7.065000	483.157
13.6586	-7.065000	381.71
22.6586	-7.065000	502.741
-33.3414	-6.065000	790.3
-24.3414	-6.065000	797.263
-15.3414	-6.065000	623.43
-6.341423	-6.065000	283.799
2.658577	-6.065000	202.844
11.6586	-6.065000	446.132
20.6586	-6.065000	542.848
-35.3414	-5.065000	521.138
-26.3414	-5.065000	642.249
-17.3414	-5.065000	34.8879
-8.341423	-5.065000	519.955
0.658577	-5.065000	270.791
9.658577	-5.065000	163.741
18.6586	-5.065000	554.983
-37.3414	-4.065000	750.206
-28.3414	-4.065000	272.827
-19.3414	-4.065000	214.042
-10.3414	-4.065000	618.157
-1.341423	-4.065000	62.1203
7.658577	-4.065000	477.033
16.6586	-4.065000	340.08
-39.3414	-3.065000	3.178869
-30.3414	-3.065000	827.137
-21.3414	-3.065000	763.557
-12.3414	-3.065000	560.626
-3.341423	-3.065000	112.474
5.658577	-3.065000	473.42
14.6586	-3.065000	768.21
23.6586	-3.065000	371.144
-32.3414	-2.065000	32.6276
-23.3414	-2.065000	1020.05
-14.3414	-2.065000	607.825
-5.341423	-2.065000	641.742
3.658577	-2.065000	200.795
12.6586	-2.065000	770.572
21.6586	-2.065000	38.7434
-34.3414	-1.065000	122.712
-25.3414	-1.065000	555.925
-16.3414	-1.065000	515.292
-7.341423	-1.065000	370.536
1.658577	-1.065000	837.095
10.6586	-1.065000	550.611
19.6586	-1.065000	717.378
-36.3414	-0.065000	137.636
-27.3414	-0.065000	2.239707
-18.3414	-0.065000	538.773
-9.341423	-0.065000	367.385
-0.341423	-0.065000	663.097
8.658577	-0.065000	344.214
17.6586	-0.065000	542.073
-38.3414	0.935000	119.729
-29.3414	0.935000	25.8053
-20.3414	0.935000	202.437
-11.3414	0.935000	517.896
-2.341423	0.935000	848.026
6.658577	0.935000	919.608
15.6586	0.935000	408.817
24.6586	0.935000	350.186
-31.3414	1.935000	581.114
-22.3414	1.935000	524.241
-13.3414	1.935000	835.244
-4.341423	1.935000	674.462
4.658577	1.935000	354.812
13.6586	1.935000	806.491
22.6586	1.935000	624.101
-33.3414	2.935000	239.815
-24.3414	2.935000	335.642
-15.3414	2.935000	12.6492
-6.341423	2.935000	648.534
2.658577	2.935000	540.94
11.6586	2.935000	845.121
20.6586	2.935000	187.452
-35.3414	3.935000	585.733
-26.3414	3.935000	803.696
-17.3414	3.935000	381.238
-8.341423	3.935000	517.553
0.658577	3.935000	749.749
9.658577	3.935000	702.859
18.6586	3.935000	671.816
-37.3414	4.935000	821.571
-28.3414	4.935000	295.662
-19.3414	4.935000	548.22
-10.3414	4.935000	738.974
-1.341423	4.935000	632.569
7.658577	4.935000	772.917
16.6586	4.935000	760.18
-39.3414	5.935000	814.641
-30.3414	5.935000	89.0137
-21.3414	5.935000	134.601
-12.3414	5.935000	118.983
-3.341423	5.935000	540.131
5.658577	5.935000	324.57
14.6586	5.935000	855.508
23.6586	5.935000	329.966
-32.3414	6.935000	560.843
-23.3414	6.935000	373.453
-14.3414	6.935000	498.393
-5.341423	6.935000	226.647
3.658577	6.935000	130.635
12.6586	6.935000	802.769
21.6586	6.935000	828.606
-34.3414	7.935000	621.455
-25.3414	7.935000	624.695
-16.3414	7.935000	630.387
-7.341423	7.935000	383.461
1.658577	7.935000	735.689
10.6586	7.935000	769.226
19.6586	7.935000	41.1773
-36.3414	8.935000	702.009
-27.3414	8.935000	606.684
-18.3414	8.935000	561.615
-9.341423	8.935000	337.263
-0.341423	8.935000	697.543
8.658577	8.935000	426.243
17.6586	8.935000	587.805
-38.3414	9.935000	645.86
-29.3414	9.935000	1024.5
-20.3414	9.935000	550.931
-11.3414	9.935000	337.542
-2.341423	9.935000	578.638
6.658577	9.935000	325.672
15.6586	9.935000	8.803123
24.6586	9.935000	16.0371
-31.3414	10.935	803.56
-22.3414	10.935	567.395
-13.3414	10.935	623.619
-4.341423	10.935	602.469
4.658577	10.935	400.984
13.6586	10.935	42.3085
22.6586	10.935	267.076
-33.3414	11.935	673.916
-24.3414	11.935	31.5922
-15.3414	11.935	1049.02
-6.341423	11.935	410.829
2.658577	11.935	419.58
11.6586	11.935	629.272
20.6586	11.935	137.175
-35.3414	12.935	573.601
-26.3414	12.935	138.112
-17.3414	12.935	540.601
-8.341423	12.935	488.994
0.658577	12.935	610.962
9.658577	12.935	764.433
18.6586	12.935	6.686042
-37.3414	13.935	648.453
-28.3414	13.935	602.361
-19.3414	13.935	327.44
-10.3414	13.935	84.284
-1.341423	13.935	500.631
7.658577	13.935	545.251
16.6586	13.935	0.000000
-39.3414	14.935	866.019
-30.3414	14.935	488.64
-21.3414	14.935	645.651
-12.3414	14.935	424.77
-3.341423	14.935	283.683
5.658577	14.935	95.7075
14.6586	14.935	3.074924
23.6586	14.935	0.000000
-32.3414	15.935	645.784
-23.3414	15.935	32.8128
-14.3414	15.935	735.537
-5.341423	15.935	237.049
3.658577	15.935	227.969
12.6586	15.935	265.499
21.6586	15.935	0.273735
24.6586	15.935	51.5666