File: data/derived_data/raman/20170920_Gr-NH2_for_Radisurf/20170920 Gr-NH for Radisurf map 2/G pos.txt
#XList		#YList		#IList
-39.3414	-21.065	1583.57
-30.3414	-21.065	1580.94
-21.3414	-21.065	1580.97
-12.3414	-21.065	1570
-3.341423	-21.065	1585.61
5.658577	-21.065	1581.4
14.6586	-21.065	1584.34
23.6586	-21.065	1570
-32.3414	-20.065	1581.98
-23.3414	-20.065	1584.97
-14.3414	-20.065	1570
-5.341423	-20.065	1584.06
3.658577	-20.065	1582.53
12.6586	-20.065	1585.72
21.6586	-20.065	1581.4
-34.3414	-19.065	1583.63
-25.3414	-19.065	1583.54
-16.3414	-19.065	1570
-7.341423	-19.065	1585.6
1.658577	-19.065	1582.69
10.6586	-19.065	1582.91
19.6586	-19.065	1583.35
-36.3414	-18.065	1583.5
-27.3414	-18.065	1584.4
-18.3414	-18.065	1581.12
-9.341423	-18.065	1586.52
-0.341423	-18.065	1583.57
8.658577	-18.065	1570
17.6586	-18.065	1584.73
-38.3414	-17.065	1579.16
-29.3414	-17.065	1570
-20.3414	-17.065	1579.77
-11.3414	-17.065	1580.58
-2.341423	-17.065	1584.46
6.658577	-17.065	1581.94
15.6586	-17.065	1578.74
24.6586	-17.065	1575.47
-31.3414	-16.065	1570
-22.3414	-16.065	1585.22
-13.3414	-16.065	1570
-4.341423	-16.065	1583.2
4.658577	-16.065	1581.87
13.6586	-16.065	1579.99
22.6586	-16.065	1578.83
-33.3414	-15.065	1570
-24.3414	-15.065	1570.93
-15.3414	-15.065	1570
-6.341423	-15.065	1585.01
2.658577	-15.065	1582.49
11.6586	-15.065	1576.51
20.6586	-15.065	1583.01
-35.3414	-14.065	1570
-26.3414	-14.065	1578.8
-17.3414	-14.065	1578.9
-8.341423	-14.065	1584.67
0.658577	-14.065	1583.56
9.658577	-14.065	1570
18.6586	-14.065	1584.41
-37.3414	-13.065	1570
-28.3414	-13.065	1570
-19.3414	-13.065	1583.33
-10.3414	-13.065	1586.26
-1.341423	-13.065	1582.44
7.658577	-13.065	1570
16.6586	-13.065	1573.68
-39.3414	-12.065	1570
-30.3414	-12.065	1570
-21.3414	-12.065	1582.07
-12.3414	-12.065	1585.67
-3.341423	-12.065	1583.23
5.658577	-12.065	1583.22
14.6586	-12.065	1584.73
23.6586	-12.065	1583.87
-32.3414	-11.065	1570
-23.3414	-11.065	1582.23
-14.3414	-11.065	1579.21
-5.341423	-11.065	1582.17
3.658577	-11.065	1581.56
12.6586	-11.065	1584.5
21.6586	-11.065	1582.84
-34.3414	-10.065	1570
-25.3414	-10.065	1572.91
-16.3414	-10.065	1584.09
-7.341423	-10.065	1582.42
1.658577	-10.065	1582.9
10.6586	-10.065	1600
19.6586	-10.065	1584.17
-36.3414	-9.065000	1570
-27.3414	-9.065000	1570
-18.3414	-9.065000	1584.18
-9.341423	-9.065000	1570
-0.341423	-9.065000	1581.67
8.658577	-9.065000	1587.17
17.6586	-9.065000	1584.33
-38.3414	-8.065000	1570
-29.3414	-8.065000	1570
-20.3414	-8.065000	1581.25
-11.3414	-8.065000	1570
-2.341423	-8.065000	1582.49
6.658577	-8.065000	1570
15.6586	-8.065000	1581.64
24.6586	-8.065000	1584.52
-31.3414	-7.065000	1570
-22.3414	-7.065000	1584.39
-13.3414	-7.065000	1570
-4.341423	-7.065000	1580.37
4.658577	-7.065000	1585.06
13.6586	-7.065000	1574.92
22.6586	-7.065000	1583.77
-33.3414	-6.065000	1570
-24.3414	-6.065000	1573.26
-15.3414	-6.065000	1570
-6.341423	-6.065000	1570
2.658577	-6.065000	1578.71
11.6586	-6.065000	1581.51
20.6586	-6.065000	1582.71
-35.3414	-5.065000	1570
-26.3414	-5.065000	1579.63
-17.3414	-5.065000	1584.02
-8.341423	-5.065000	1570
0.658577	-5.065000	1584.63
9.658577	-5.065000	1580.61
18.6586	-5.065000	1582.54
-37.3414	-4.065000	1584.42
-28.3414	-4.065000	1570
-19.3414	-4.065000	1573.01
-10.3414	-4.065000	1586.05
-1.341423	-4.065000	1577.49
7.658577	-4.065000	1574.18
16.6586	-4.065000	1578.6
-39.3414	-3.065000	1595.39
-30.3414	-3.065000	1572.54
-21.3414	-3.065000	1581.7
-12.3414	-3.065000	1584.87
-3.341423	-3.065000	1581.58
5.658577	-3.065000	1581.56
14.6586	-3.065000	1572.67
23.6586	-3.065000	1584
-32.3414	-2.065000	1586.71
-23.3414	-2.065000	1587.51
-14.3414	-2.065000	1570
-5.341423	-2.065000	1581.84
3.658577	-2.065000	1574.42
12.6586	-2.065000	1581.8
21.6586	-2.065000	1583.27
-34.3414	-1.065000	1581.25
-25.3414	-1.065000	1571.21
-16.3414	-1.065000	1583.19
-7.341423	-1.065000	1583.47
1.658577	-1.065000	1575.01
10.6586	-1.065000	1584.84
19.6586	-1.065000	1584.02
-36.3414	-0.065000	1581.01
-27.3414	-0.065000	1600
-18.3414	-0.065000	1582.71
-9.341423	-0.065000	1582.04
-0.341423	-0.065000	1570
8.658577	-0.065000	1570
17.6586	-0.065000	1583.21
-38.3414	0.935000	1580.51
-29.3414	0.935000	1583.95
-20.3414	0.935000	1570
-11.3414	0.935000	1570
-2.341423	0.935000	1580.82
6.658577	0.935000	1579.83
15.6586	0.935000	1575.87
24.6586	0.935000	1584.04
-31.3414	1.935000	1585.63
-22.3414	1.935000	1570
-13.3414	1.935000	1570
-4.341423	1.935000	1570
4.658577	1.935000	1583.48
13.6586	1.935000	1577.35
22.6586	1.935000	1573.72
-33.3414	2.935000	1582.33
-24.3414	2.935000	1585.15
-15.3414	2.935000	1580.63
-6.341423	2.935000	1582.74
2.658577	2.935000	1583.89
11.6586	2.935000	1586.84
20.6586	2.935000	1578.34
-35.3414	3.935000	1582.79
-26.3414	3.935000	1580.56
-17.3414	3.935000	1570
-8.341423	3.935000	1582.18
0.658577	3.935000	1570
9.658577	3.935000	1570.64
18.6586	3.935000	1570
-37.3414	4.935000	1572.62
-28.3414	4.935000	1580.95
-19.3414	4.935000	1570
-10.3414	4.935000	1583.93
-1.341423	4.935000	1570
7.658577	4.935000	1582.08
16.6586	4.935000	1582.92
-39.3414	5.935000	1570
-30.3414	5.935000	1584.73
-21.3414	5.935000	1584.68
-12.3414	5.935000	1570
-3.341423	5.935000	1571.62
5.658577	5.935000	1583.22
14.6586	5.935000	1581.2
23.6586	5.935000	1570
-32.3414	6.935000	1570
-23.3414	6.935000	1583.99
-14.3414	6.935000	1570
-5.341423	6.935000	1580.94
3.658577	6.935000	1581.35
12.6586	6.935000	1575.8
21.6586	6.935000	1571.84
-34.3414	7.935000	1570
-25.3414	7.935000	1583.15
-16.3414	7.935000	1576.96
-7.341423	7.935000	1586.01
1.658577	7.935000	1579.95
10.6586	7.935000	1580.63
19.6586	7.935000	1577.86
-36.3414	8.935000	1570
-27.3414	8.935000	1584.52
-18.3414	8.935000	1581.83
-9.341423	8.935000	1586.5
-0.341423	8.935000	1570
8.658577	8.935000	1582.38
17.6586	8.935000	1576.1
-38.3414	9.935000	1570
-29.3414	9.935000	1587.89
-20.3414	9.935000	1583.34
-11.3414	9.935000	1585.16
-2.341423	9.935000	1580.78
6.658577	9.935000	1581.33
15.6586	9.935000	1595.88
24.6586	9.935000	1570
-31.3414	10.935	1570
-22.3414	10.935	1583.07
-13.3414	10.935	1577.74
-4.341423	10.935	1570
4.658577	10.935	1580.71
13.6586	10.935	1583.73
22.6586	10.935	1570
-33.3414	11.935	1583.61
-24.3414	11.935	1583.21
-15.3414	11.935	1588.48
-6.341423	11.935	1585.81
2.658577	11.935	1583.61
11.6586	11.935	1582.8
20.6586	11.935	1583.41
-35.3414	12.935	1570
-26.3414	12.935	1586.76
-17.3414	12.935	1585.98
-8.341423	12.935	1582.2
0.658577	12.935	1580.49
9.658577	12.935	1587.22
18.6586	12.935	1586.63
-37.3414	13.935	1570
-28.3414	13.935	1586.79
-19.3414	13.935	1570
-10.3414	13.935	1576.99
-1.341423	13.935	1584.15
7.658577	13.935	1570
16.6586	13.935	1600
-39.3414	14.935	1570
-30.3414	14.935	1570
-21.3414	14.935	1575.16
-12.3414	14.935	1570
-3.341423	14.935	1577.65
5.658577	14.935	1578.73
14.6586	14.935	1577.13
23.6586	14.935	1599.1
-32.3414	15.935	1570
-23.3414	15.935	1586.74
-14.3414	15.935	1570
-5.341423	15.935	1582.26
3.658577	15.935	1579.22
12.6586	15.935	1575.63
21.6586	15.935	1600
24.6586	15.935	1570.96