File: data/derived_data/raman/20170920_Gr-NH2_for_Radisurf/20170920 Gr-NH for Radisurf map 2/SiO2 int.txt
#XList		#YList		#IList
-39.3414	-21.065	0.000000
-30.3414	-21.065	0.000000
-21.3414	-21.065	17.1198
-12.3414	-21.065	0.000000
-3.341423	-21.065	28.9203
5.658577	-21.065	8.132603
14.6586	-21.065	0.000000
23.6586	-21.065	33.5073
-32.3414	-20.065	0.000000
-23.3414	-20.065	26.4495
-14.3414	-20.065	0.000000
-5.341423	-20.065	6.562114
3.658577	-20.065	2.887646
12.6586	-20.065	8.571949
21.6586	-20.065	13.2872
-34.3414	-19.065	30.0421
-25.3414	-19.065	0.000000
-16.3414	-19.065	0.000000
-7.341423	-19.065	0.000000
1.658577	-19.065	0.000000
10.6586	-19.065	5.355343
19.6586	-19.065	0.000000
-36.3414	-18.065	0.000000
-27.3414	-18.065	0.000000
-18.3414	-18.065	97.4458
-9.341423	-18.065	0.000000
-0.341423	-18.065	0.000000
8.658577	-18.065	0.000000
17.6586	-18.065	11.7407
-38.3414	-17.065	0.000000
-29.3414	-17.065	0.000000
-20.3414	-17.065	22.702
-11.3414	-17.065	0.000000
-2.341423	-17.065	0.000000
6.658577	-17.065	88.2762
15.6586	-17.065	0.000000
24.6586	-17.065	16.9004
-31.3414	-16.065	0.000000
-22.3414	-16.065	0.000000
-13.3414	-16.065	0.000000
-4.341423	-16.065	0.000000
4.658577	-16.065	4.226327
13.6586	-16.065	28.8615
22.6586	-16.065	18.0542
-33.3414	-15.065	0.000000
-24.3414	-15.065	0.000000
-15.3414	-15.065	0.000000
-6.341423	-15.065	8.619762
2.658577	-15.065	0.000000
11.6586	-15.065	0.000000
20.6586	-15.065	29.4772
-35.3414	-14.065	0.000000
-26.3414	-14.065	0.000000
-17.3414	-14.065	21.8269
-8.341423	-14.065	0.000000
0.658577	-14.065	0.000000
9.658577	-14.065	0.000000
18.6586	-14.065	26.4111
-37.3414	-13.065	0.000000
-28.3414	-13.065	0.000000
-19.3414	-13.065	5.159335
-10.3414	-13.065	0.000000
-1.341423	-13.065	0.000000
7.658577	-13.065	0.000000
16.6586	-13.065	28.6595
-39.3414	-12.065	126.779
-30.3414	-12.065	0.000000
-21.3414	-12.065	0.000000
-12.3414	-12.065	6.136269
-3.341423	-12.065	0.000000
5.658577	-12.065	0.000000
14.6586	-12.065	11.1573
23.6586	-12.065	0.000000
-32.3414	-11.065	0.000000
-23.3414	-11.065	0.000000
-14.3414	-11.065	22.0457
-5.341423	-11.065	0.000000
3.658577	-11.065	0.000000
12.6586	-11.065	32.9487
21.6586	-11.065	3.712515
-34.3414	-10.065	0.000000
-25.3414	-10.065	0.000000
-16.3414	-10.065	0.000000
-7.341423	-10.065	12.6887
1.658577	-10.065	0.000000
10.6586	-10.065	34.9139
19.6586	-10.065	0.000000
-36.3414	-9.065000	0.000000
-27.3414	-9.065000	0.000000
-18.3414	-9.065000	12.9596
-9.341423	-9.065000	17.9742
-0.341423	-9.065000	0.000000
8.658577	-9.065000	33.8196
17.6586	-9.065000	0.000000
-38.3414	-8.065000	0.000000
-29.3414	-8.065000	0.000000
-20.3414	-8.065000	3.548739
-11.3414	-8.065000	0.000000
-2.341423	-8.065000	6.946182
6.658577	-8.065000	0.000000
15.6586	-8.065000	17.9957
24.6586	-8.065000	32.3889
-31.3414	-7.065000	0.000000
-22.3414	-7.065000	27.0308
-13.3414	-7.065000	0.000000
-4.341423	-7.065000	27.4594
4.658577	-7.065000	0.000000
13.6586	-7.065000	14.7159
22.6586	-7.065000	12.0283
-33.3414	-6.065000	0.000000
-24.3414	-6.065000	0.000000
-15.3414	-6.065000	0.000000
-6.341423	-6.065000	20.704
2.658577	-6.065000	23.84
11.6586	-6.065000	0.000000
20.6586	-6.065000	4.021227
-35.3414	-5.065000	0.000000
-26.3414	-5.065000	0.000000
-17.3414	-5.065000	36.0945
-8.341423	-5.065000	0.000000
0.658577	-5.065000	24.6966
9.658577	-5.065000	22.0229
18.6586	-5.065000	5.522736
-37.3414	-4.065000	1998.19
-28.3414	-4.065000	15.733
-19.3414	-4.065000	24.0498
-10.3414	-4.065000	0.000000
-1.341423	-4.065000	31.9996
7.658577	-4.065000	10.5476
16.6586	-4.065000	17.1823
-39.3414	-3.065000	36.8992
-30.3414	-3.065000	0.000000
-21.3414	-3.065000	0.000000
-12.3414	-3.065000	0.000000
-3.341423	-3.065000	26.0876
5.658577	-3.065000	9.428015
14.6586	-3.065000	648.098
23.6586	-3.065000	4.908474
-32.3414	-2.065000	31.4393
-23.3414	-2.065000	0.000000
-14.3414	-2.065000	0.000000
-5.341423	-2.065000	0.000000
3.658577	-2.065000	29.832
12.6586	-2.065000	0.000000
21.6586	-2.065000	33.4127
-34.3414	-1.065000	34.4387
-25.3414	-1.065000	0.000000
-16.3414	-1.065000	2000
-7.341423	-1.065000	0.000000
1.658577	-1.065000	0.000000
10.6586	-1.065000	9.681172
19.6586	-1.065000	15.6128
-36.3414	-0.065000	0.000000
-27.3414	-0.065000	35.7077
-18.3414	-0.065000	10.6278
-9.341423	-0.065000	0.000000
-0.341423	-0.065000	0.000000
8.658577	-0.065000	8.199831
17.6586	-0.065000	0.000000
-38.3414	0.935000	0.654617
-29.3414	0.935000	33.018
-20.3414	0.935000	19.7967
-11.3414	0.935000	0.000000
-2.341423	0.935000	0.000000
6.658577	0.935000	0.000000
15.6586	0.935000	0.000000
24.6586	0.935000	32.2059
-31.3414	1.935000	0.000000
-22.3414	1.935000	0.000000
-13.3414	1.935000	0.000000
-4.341423	1.935000	0.000000
4.658577	1.935000	0.000000
13.6586	1.935000	0.000000
22.6586	1.935000	0.000000
-33.3414	2.935000	0.000000
-24.3414	2.935000	0.000000
-15.3414	2.935000	37.4746
-6.341423	2.935000	0.000000
2.658577	2.935000	0.000000
11.6586	2.935000	0.000000
20.6586	2.935000	25.4779
-35.3414	3.935000	0.000000
-26.3414	3.935000	0.000000
-17.3414	3.935000	645.769
-8.341423	3.935000	0.000000
0.658577	3.935000	0.000000
9.658577	3.935000	0.000000
18.6586	3.935000	0.000000
-37.3414	4.935000	1099.19
-28.3414	4.935000	13.3838
-19.3414	4.935000	0.000000
-10.3414	4.935000	0.000000
-1.341423	4.935000	0.000000
7.658577	4.935000	0.000000
16.6586	4.935000	0.000000
-39.3414	5.935000	0.000000
-30.3414	5.935000	31.9097
-21.3414	5.935000	26.4435
-12.3414	5.935000	27.9474
-3.341423	5.935000	0.000000
5.658577	5.935000	16.2084
14.6586	5.935000	0.000000
23.6586	5.935000	0.000000
-32.3414	6.935000	0.000000
-23.3414	6.935000	38.9192
-14.3414	6.935000	0.000000
-5.341423	6.935000	20.0102
3.658577	6.935000	31.7715
12.6586	6.935000	0.000000
21.6586	6.935000	0.000000
-34.3414	7.935000	0.000000
-25.3414	7.935000	107.646
-16.3414	7.935000	0.000000
-7.341423	7.935000	8.656270
1.658577	7.935000	13.0112
10.6586	7.935000	0.000000
19.6586	7.935000	38.9359
-36.3414	8.935000	0.000000
-27.3414	8.935000	0.000000
-18.3414	8.935000	0.000000
-9.341423	8.935000	18.3794
-0.341423	8.935000	0.000000
8.658577	8.935000	6.483848
17.6586	8.935000	0.000000
-38.3414	9.935000	0.000000
-29.3414	9.935000	0.000000
-20.3414	9.935000	19.3645
-11.3414	9.935000	0.000000
-2.341423	9.935000	0.000000
6.658577	9.935000	3.219720
15.6586	9.935000	34.0766
24.6586	9.935000	33.8106
-31.3414	10.935	0.000000
-22.3414	10.935	9.662834
-13.3414	10.935	0.000000
-4.341423	10.935	0.000000
4.658577	10.935	7.389035
13.6586	10.935	34.1905
22.6586	10.935	17.677
-33.3414	11.935	0.000000
-24.3414	11.935	31.8816
-15.3414	11.935	0.000000
-6.341423	11.935	13.4476
2.658577	11.935	0.000000
11.6586	11.935	0.000000
20.6586	11.935	32.9421
-35.3414	12.935	0.000000
-26.3414	12.935	25.5074
-17.3414	12.935	9.893927
-8.341423	12.935	0.000000
0.658577	12.935	0.000000
9.658577	12.935	0.000000
18.6586	12.935	32.6802
-37.3414	13.935	0.000000
-28.3414	13.935	0.000000
-19.3414	13.935	0.000000
-10.3414	13.935	25.6046
-1.341423	13.935	9.304908
7.658577	13.935	0.000000
16.6586	13.935	35.1746
-39.3414	14.935	0.000000
-30.3414	14.935	0.000000
-21.3414	14.935	0.000000
-12.3414	14.935	15.652
-3.341423	14.935	16.1937
5.658577	14.935	29.665
14.6586	14.935	37.9463
23.6586	14.935	36.7488
-32.3414	15.935	0.000000
-23.3414	15.935	34.4663
-14.3414	15.935	0.000000
-5.341423	15.935	3.279736
3.658577	15.935	23.4693
12.6586	15.935	26.1867
21.6586	15.935	35.5033
24.6586	15.935	35.7012