File: data/derived_data/raman/20170920_Gr-NH2_for_Radisurf/20170920 Gr-NH for Radisurf map 2/SiO2 pos.txt
#XList		#YList		#IList
-39.3414	-21.065	966.258
-30.3414	-21.065	900
-21.3414	-21.065	963.366
-12.3414	-21.065	962.826
-3.341423	-21.065	966.673
5.658577	-21.065	958.539
14.6586	-21.065	965.178
23.6586	-21.065	968.586
-32.3414	-20.065	963.431
-23.3414	-20.065	969.171
-14.3414	-20.065	966.457
-5.341423	-20.065	956.947
3.658577	-20.065	960.811
12.6586	-20.065	966.428
21.6586	-20.065	966.114
-34.3414	-19.065	969.071
-25.3414	-19.065	949.804
-16.3414	-19.065	957.255
-7.341423	-19.065	968.583
1.658577	-19.065	900
10.6586	-19.065	965.46
19.6586	-19.065	964.562
-36.3414	-18.065	965.808
-27.3414	-18.065	962.493
-18.3414	-18.065	963.467
-9.341423	-18.065	962.276
-0.341423	-18.065	966.342
8.658577	-18.065	965.069
17.6586	-18.065	967.981
-38.3414	-17.065	962.58
-29.3414	-17.065	964.071
-20.3414	-17.065	970.35
-11.3414	-17.065	962.515
-2.341423	-17.065	964.104
6.658577	-17.065	959.496
15.6586	-17.065	965.622
24.6586	-17.065	969.55
-31.3414	-16.065	963.503
-22.3414	-16.065	908.871
-13.3414	-16.065	962.492
-4.341423	-16.065	1024.45
4.658577	-16.065	960.836
13.6586	-16.065	967.443
22.6586	-16.065	965.759
-33.3414	-15.065	963.194
-24.3414	-15.065	963.153
-15.3414	-15.065	962.514
-6.341423	-15.065	950.135
2.658577	-15.065	963.642
11.6586	-15.065	966.216
20.6586	-15.065	966.899
-35.3414	-14.065	959.828
-26.3414	-14.065	963.798
-17.3414	-14.065	968.667
-8.341423	-14.065	966.725
0.658577	-14.065	963.505
9.658577	-14.065	964.175
18.6586	-14.065	966.243
-37.3414	-13.065	959.504
-28.3414	-13.065	965.072
-19.3414	-13.065	968.803
-10.3414	-13.065	967.506
-1.341423	-13.065	965.05
7.658577	-13.065	960.276
16.6586	-13.065	964.951
-39.3414	-12.065	957.621
-30.3414	-12.065	962.31
-21.3414	-12.065	944.374
-12.3414	-12.065	960.778
-3.341423	-12.065	965.571
5.658577	-12.065	967.635
14.6586	-12.065	963.098
23.6586	-12.065	973.689
-32.3414	-11.065	964.775
-23.3414	-11.065	969.049
-14.3414	-11.065	966.013
-5.341423	-11.065	964.27
3.658577	-11.065	966.614
12.6586	-11.065	965.451
21.6586	-11.065	971.63
-34.3414	-10.065	963.073
-25.3414	-10.065	1035.7
-16.3414	-10.065	963.806
-7.341423	-10.065	978.17
1.658577	-10.065	962.853
10.6586	-10.065	966.806
19.6586	-10.065	953.648
-36.3414	-9.065000	958.39
-27.3414	-9.065000	963.297
-18.3414	-9.065000	967.524
-9.341423	-9.065000	964.341
-0.341423	-9.065000	959.541
8.658577	-9.065000	969.787
17.6586	-9.065000	959.678
-38.3414	-8.065000	960.682
-29.3414	-8.065000	960.62
-20.3414	-8.065000	961.037
-11.3414	-8.065000	961.936
-2.341423	-8.065000	971.272
6.658577	-8.065000	973.34
15.6586	-8.065000	965.547
24.6586	-8.065000	968.382
-31.3414	-7.065000	962.087
-22.3414	-7.065000	966.653
-13.3414	-7.065000	962.819
-4.341423	-7.065000	968.745
4.658577	-7.065000	977.481
13.6586	-7.065000	964.324
22.6586	-7.065000	973.515
-33.3414	-6.065000	964.087
-24.3414	-6.065000	959.376
-15.3414	-6.065000	954.581
-6.341423	-6.065000	964.079
2.658577	-6.065000	964.47
11.6586	-6.065000	961.799
20.6586	-6.065000	960.667
-35.3414	-5.065000	963.778
-26.3414	-5.065000	900
-17.3414	-5.065000	969.53
-8.341423	-5.065000	1100
0.658577	-5.065000	966.823
9.658577	-5.065000	966.692
18.6586	-5.065000	973.425
-37.3414	-4.065000	969.069
-28.3414	-4.065000	964.403
-19.3414	-4.065000	972.254
-10.3414	-4.065000	964.974
-1.341423	-4.065000	965.903
7.658577	-4.065000	966.941
16.6586	-4.065000	965.455
-39.3414	-3.065000	966.568
-30.3414	-3.065000	957.801
-21.3414	-3.065000	966.803
-12.3414	-3.065000	962.966
-3.341423	-3.065000	965.922
5.658577	-3.065000	963.75
14.6586	-3.065000	968.359
23.6586	-3.065000	963
-32.3414	-2.065000	966.432
-23.3414	-2.065000	963.931
-14.3414	-2.065000	957.334
-5.341423	-2.065000	961.645
3.658577	-2.065000	967.33
12.6586	-2.065000	967.215
21.6586	-2.065000	965.129
-34.3414	-1.065000	920.629
-25.3414	-1.065000	965.159
-16.3414	-1.065000	968.377
-7.341423	-1.065000	962.864
1.658577	-1.065000	962.077
10.6586	-1.065000	962.339
19.6586	-1.065000	955.518
-36.3414	-0.065000	961.666
-27.3414	-0.065000	967.832
-18.3414	-0.065000	969.613
-9.341423	-0.065000	962.865
-0.341423	-0.065000	960.606
8.658577	-0.065000	956.113
17.6586	-0.065000	963.448
-38.3414	0.935000	900
-29.3414	0.935000	967.885
-20.3414	0.935000	965.257
-11.3414	0.935000	963.081
-2.341423	0.935000	961.782
6.658577	0.935000	963.156
15.6586	0.935000	968.572
24.6586	0.935000	943.202
-31.3414	1.935000	963.758
-22.3414	1.935000	962.244
-13.3414	1.935000	960.59
-4.341423	1.935000	960.567
4.658577	1.935000	1063.97
13.6586	1.935000	962.425
22.6586	1.935000	966.404
-33.3414	2.935000	982.234
-24.3414	2.935000	964.087
-15.3414	2.935000	968.122
-6.341423	2.935000	962.105
2.658577	2.935000	947.6
11.6586	2.935000	965.71
20.6586	2.935000	962.682
-35.3414	3.935000	928.89
-26.3414	3.935000	963.045
-17.3414	3.935000	956.753
-8.341423	3.935000	979.669
0.658577	3.935000	959.64
9.658577	3.935000	959.608
18.6586	3.935000	961.216
-37.3414	4.935000	957.377
-28.3414	4.935000	965.904
-19.3414	4.935000	967.882
-10.3414	4.935000	962.658
-1.341423	4.935000	963.048
7.658577	4.935000	964.856
16.6586	4.935000	961.064
-39.3414	5.935000	950.915
-30.3414	5.935000	966.625
-21.3414	5.935000	966.446
-12.3414	5.935000	964.777
-3.341423	5.935000	900
5.658577	5.935000	958.321
14.6586	5.935000	962.363
23.6586	5.935000	965.852
-32.3414	6.935000	959.975
-23.3414	6.935000	960.013
-14.3414	6.935000	962.534
-5.341423	6.935000	966.134
3.658577	6.935000	965.617
12.6586	6.935000	962.964
21.6586	6.935000	962.966
-34.3414	7.935000	959.977
-25.3414	7.935000	962.179
-16.3414	7.935000	959.65
-7.341423	7.935000	967.117
1.658577	7.935000	963.98
10.6586	7.935000	964.913
19.6586	7.935000	968.751
-36.3414	8.935000	961.464
-27.3414	8.935000	966.573
-18.3414	8.935000	904.155
-9.341423	8.935000	974.513
-0.341423	8.935000	957.319
8.658577	8.935000	966.02
17.6586	8.935000	995.523
-38.3414	9.935000	959.916
-29.3414	9.935000	959.933
-20.3414	9.935000	955.859
-11.3414	9.935000	965.82
-2.341423	9.935000	966.256
6.658577	9.935000	976.633
15.6586	9.935000	967.877
24.6586	9.935000	966.749
-31.3414	10.935	959.87
-22.3414	10.935	971.285
-13.3414	10.935	1065.93
-4.341423	10.935	965.512
4.658577	10.935	978.56
13.6586	10.935	965.83
22.6586	10.935	967.944
-33.3414	11.935	961.766
-24.3414	11.935	970.728
-15.3414	11.935	963.358
-6.341423	11.935	968.642
2.658577	11.935	964.67
11.6586	11.935	967.309
20.6586	11.935	968.536
-35.3414	12.935	964.056
-26.3414	12.935	969.298
-17.3414	12.935	965.589
-8.341423	12.935	968.639
0.658577	12.935	966.59
9.658577	12.935	961.546
18.6586	12.935	968.63
-37.3414	13.935	950.2
-28.3414	13.935	969.592
-19.3414	13.935	964.33
-10.3414	13.935	966.469
-1.341423	13.935	965.022
7.658577	13.935	965.464
16.6586	13.935	969.081
-39.3414	14.935	962.45
-30.3414	14.935	962.114
-21.3414	14.935	900
-12.3414	14.935	964.786
-3.341423	14.935	962.787
5.658577	14.935	969.28
14.6586	14.935	966.528
23.6586	14.935	969.658
-32.3414	15.935	960.726
-23.3414	15.935	967.724
-14.3414	15.935	961.368
-5.341423	15.935	976.183
3.658577	15.935	970.279
12.6586	15.935	965.297
21.6586	15.935	968.589
24.6586	15.935	970.056