File: data/derived_data/raman/20170920_Gr-NH2_for_Radisurf/20170920 Gr-NH for Radisurf map 2/SiO2 FWHM.txt
#XList		#YList		#IList
-39.3414	-21.065	33.5153
-30.3414	-21.065	0.639823
-21.3414	-21.065	48.9347
-12.3414	-21.065	0.639823
-3.341423	-21.065	57.3499
5.658577	-21.065	38.1272
14.6586	-21.065	7.568366
23.6586	-21.065	55.8696
-32.3414	-20.065	0.639823
-23.3414	-20.065	48.3765
-14.3414	-20.065	0.639823
-5.341423	-20.065	29.4425
3.658577	-20.065	0.645568
12.6586	-20.065	25.6749
21.6586	-20.065	40.1449
-34.3414	-19.065	56.8387
-25.3414	-19.065	0.639823
-16.3414	-19.065	0.639823
-7.341423	-19.065	19.8217
1.658577	-19.065	0.639823
10.6586	-19.065	30.4133
19.6586	-19.065	4.096681
-36.3414	-18.065	28.3811
-27.3414	-18.065	15.9263
-18.3414	-18.065	0.822430
-9.341423	-18.065	11.3791
-0.341423	-18.065	31.2159
8.658577	-18.065	0.639823
17.6586	-18.065	0.796696
-38.3414	-17.065	0.639823
-29.3414	-17.065	14.2589
-20.3414	-17.065	51.9323
-11.3414	-17.065	0.639823
-2.341423	-17.065	33.5049
6.658577	-17.065	1.374084
15.6586	-17.065	0.639823
24.6586	-17.065	0.646433
-31.3414	-16.065	10.1436
-22.3414	-16.065	0.639823
-13.3414	-16.065	0.639823
-4.341423	-16.065	0.639823
4.658577	-16.065	48.8372
13.6586	-16.065	47.4593
22.6586	-16.065	38.4309
-33.3414	-15.065	0.639823
-24.3414	-15.065	10.7173
-15.3414	-15.065	0.639823
-6.341423	-15.065	0.639823
2.658577	-15.065	29.8735
11.6586	-15.065	0.639823
20.6586	-15.065	50.634
-35.3414	-14.065	0.639823
-26.3414	-14.065	5.450886
-17.3414	-14.065	45.7127
-8.341423	-14.065	37.2578
0.658577	-14.065	16.4084
9.658577	-14.065	0.639823
18.6586	-14.065	49.0689
-37.3414	-13.065	0.639823
-28.3414	-13.065	10.0152
-19.3414	-13.065	60.782
-10.3414	-13.065	26.134
-1.341423	-13.065	33.1499
7.658577	-13.065	0.639823
16.6586	-13.065	43.4653
-39.3414	-12.065	0.647884
-30.3414	-12.065	0.639823
-21.3414	-12.065	0.639823
-12.3414	-12.065	30.488
-3.341423	-12.065	24.5501
5.658577	-12.065	38.3297
14.6586	-12.065	5.859589
23.6586	-12.065	13.2844
-32.3414	-11.065	0.639823
-23.3414	-11.065	12.4918
-14.3414	-11.065	46.3405
-5.341423	-11.065	37.7927
3.658577	-11.065	47.8161
12.6586	-11.065	55.3244
21.6586	-11.065	42.9347
-34.3414	-10.065	0.639823
-25.3414	-10.065	0.639823
-16.3414	-10.065	25.1069
-7.341423	-10.065	0.894499
1.658577	-10.065	21.6011
10.6586	-10.065	59.8709
19.6586	-10.065	0.639823
-36.3414	-9.065000	0.639823
-27.3414	-9.065000	0.639823
-18.3414	-9.065000	47.6367
-9.341423	-9.065000	0.802718
-0.341423	-9.065000	19.5727
8.658577	-9.065000	52.8654
17.6586	-9.065000	0.639823
-38.3414	-8.065000	0.639823
-29.3414	-8.065000	0.639823
-20.3414	-8.065000	41.1677
-11.3414	-8.065000	0.639823
-2.341423	-8.065000	38.3261
6.658577	-8.065000	47.583
15.6586	-8.065000	37.3453
24.6586	-8.065000	54.2644
-31.3414	-7.065000	0.639823
-22.3414	-7.065000	52.438
-13.3414	-7.065000	15.0027
-4.341423	-7.065000	59.8423
4.658577	-7.065000	5.153769
13.6586	-7.065000	29.681
22.6586	-7.065000	0.700343
-33.3414	-6.065000	0.639823
-24.3414	-6.065000	0.639823
-15.3414	-6.065000	0.639823
-6.341423	-6.065000	29.5128
2.658577	-6.065000	44.9536
11.6586	-6.065000	13.3824
20.6586	-6.065000	22.907
-35.3414	-5.065000	0.639823
-26.3414	-5.065000	0.639823
-17.3414	-5.065000	53.1698
-8.341423	-5.065000	0.639823
0.658577	-5.065000	45.8949
9.658577	-5.065000	48.1472
18.6586	-5.065000	0.669448
-37.3414	-4.065000	0.645203
-28.3414	-4.065000	38.8425
-19.3414	-4.065000	42.4925
-10.3414	-4.065000	0.639823
-1.341423	-4.065000	52.3442
7.658577	-4.065000	36.77
16.6586	-4.065000	37.775
-39.3414	-3.065000	64.7293
-30.3414	-3.065000	0.639823
-21.3414	-3.065000	0.639823
-12.3414	-3.065000	11.0256
-3.341423	-3.065000	55.8933
5.658577	-3.065000	51.7385
14.6586	-3.065000	0.823060
23.6586	-3.065000	24.901
-32.3414	-2.065000	57.2744
-23.3414	-2.065000	0.639823
-14.3414	-2.065000	0.639823
-5.341423	-2.065000	6.424792
3.658577	-2.065000	44.508
12.6586	-2.065000	0.639823
21.6586	-2.065000	58.2685
-34.3414	-1.065000	0.639823
-25.3414	-1.065000	0.639823
-16.3414	-1.065000	0.639823
-7.341423	-1.065000	28.9901
1.658577	-1.065000	0.639823
10.6586	-1.065000	37.4684
19.6586	-1.065000	7.563375
-36.3414	-0.065000	54.5237
-27.3414	-0.065000	58.7991
-18.3414	-0.065000	21.2955
-9.341423	-0.065000	29.5391
-0.341423	-0.065000	0.639823
8.658577	-0.065000	30.5938
17.6586	-0.065000	7.763026
-38.3414	0.935000	2206.37
-29.3414	0.935000	58.1528
-20.3414	0.935000	35.1359
-11.3414	0.935000	0.639823
-2.341423	0.935000	0.639823
6.658577	0.935000	0.639823
15.6586	0.935000	4.632663
24.6586	0.935000	0.672189
-31.3414	1.935000	27.3247
-22.3414	1.935000	0.639823
-13.3414	1.935000	0.639823
-4.341423	1.935000	0.639823
4.658577	1.935000	0.639823
13.6586	1.935000	0.639823
22.6586	1.935000	0.639823
-33.3414	2.935000	68.4477
-24.3414	2.935000	33.8998
-15.3414	2.935000	56.1752
-6.341423	2.935000	1.467579
2.658577	2.935000	7.906540
11.6586	2.935000	0.639823
20.6586	2.935000	44.7405
-35.3414	3.935000	46.9622
-26.3414	3.935000	0.639823
-17.3414	3.935000	1.121025
-8.341423	3.935000	0.639823
0.658577	3.935000	0.639823
9.658577	3.935000	0.639823
18.6586	3.935000	0.639823
-37.3414	4.935000	0.690599
-28.3414	4.935000	43.8839
-19.3414	4.935000	0.639823
-10.3414	4.935000	4.068151
-1.341423	4.935000	0.639823
7.658577	4.935000	0.639823
16.6586	4.935000	0.639823
-39.3414	5.935000	0.639823
-30.3414	5.935000	54.4398
-21.3414	5.935000	51.2262
-12.3414	5.935000	45.6966
-3.341423	5.935000	0.639823
5.658577	5.935000	45.6797
14.6586	5.935000	0.639823
23.6586	5.935000	12.9108
-32.3414	6.935000	0.639823
-23.3414	6.935000	1.772009
-14.3414	6.935000	0.639823
-5.341423	6.935000	45.0731
3.658577	6.935000	47.5623
12.6586	6.935000	0.639823
21.6586	6.935000	0.639823
-34.3414	7.935000	0.639823
-25.3414	7.935000	0.874527
-16.3414	7.935000	0.639823
-7.341423	7.935000	42.8214
1.658577	7.935000	0.703997
10.6586	7.935000	0.639823
19.6586	7.935000	56.6073
-36.3414	8.935000	0.639823
-27.3414	8.935000	36.3967
-18.3414	8.935000	0.639823
-9.341423	8.935000	1.575406
-0.341423	8.935000	0.639823
8.658577	8.935000	28.3553
17.6586	8.935000	0.639823
-38.3414	9.935000	0.639823
-29.3414	9.935000	0.639823
-20.3414	9.935000	0.743105
-11.3414	9.935000	28.0224
-2.341423	9.935000	2.156059
6.658577	9.935000	9.677874
15.6586	9.935000	61.6337
24.6586	9.935000	55.7612
-31.3414	10.935	0.639823
-22.3414	10.935	21.4074
-13.3414	10.935	0.639823
-4.341423	10.935	0.639823
4.658577	10.935	9.771516
13.6586	10.935	53.3693
22.6586	10.935	39.8149
-33.3414	11.935	8.393030
-24.3414	11.935	58.8368
-15.3414	11.935	0.639823
-6.341423	11.935	34.7994
2.658577	11.935	17.4251
11.6586	11.935	8.466153
20.6586	11.935	48.328
-35.3414	12.935	0.639823
-26.3414	12.935	50.1312
-17.3414	12.935	47.322
-8.341423	12.935	0.639823
0.658577	12.935	2.638464
9.658577	12.935	9.397612
18.6586	12.935	59.0556
-37.3414	13.935	0.639823
-28.3414	13.935	28.0575
-19.3414	13.935	8.596947
-10.3414	13.935	56.3481
-1.341423	13.935	30.2318
7.658577	13.935	0.639823
16.6586	13.935	60.7174
-39.3414	14.935	0.639823
-30.3414	14.935	0.639823
-21.3414	14.935	0.639823
-12.3414	14.935	0.639823
-3.341423	14.935	48.3922
5.658577	14.935	55.6871
14.6586	14.935	60.2933
23.6586	14.935	59.0725
-32.3414	15.935	0.639823
-23.3414	15.935	54.6744
-14.3414	15.935	0.639823
-5.341423	15.935	10.2317
3.658577	15.935	47.5969
12.6586	15.935	40.512
21.6586	15.935	61.2527
24.6586	15.935	57.337